# File created by shivutils (I.Shivvers)
# Blotched regions marked with a #.
# wl(A)   flm    er(optional)
3440.00   0.74128179
3442.00   0.41800023
3444.00   0.80803156
3446.00   0.36364800
3448.00   0.53424942
3450.00   0.46732474
3452.00   1.04341552
3454.00   0.73962490
3456.00   0.88728091
3458.00   0.91781546
3460.00   0.80807043
3462.00   0.46607904
3464.00   0.57944465
3466.00   0.65567111
3468.00   0.92282335
3470.00   0.93939073
3472.00   0.50892945
3474.00   0.80227439
3476.00   0.66141236
3478.00   0.91496394
3480.00   0.69727464
3482.00   0.76430030
3484.00   0.72702519
3486.00   0.82917898
3488.00   0.96170470
3490.00   0.45922073
3492.00   0.57867276
3494.00   0.50092090
3496.00   0.53044193
3498.00   0.46044611
3500.00   0.37755101
3502.00   0.48273434
3504.00   0.48211376
3506.00   0.65333724
3508.00   0.29916354
3510.00   0.28156654
3512.00   0.63156444
3514.00   0.51395165
3516.00   0.57089262
3518.00   0.85968577
3520.00   0.61582957
3522.00   0.60614556
3524.00   0.66330050
3526.00   0.59466179
3528.00   0.31580836
3530.00   0.64499349
3532.00   0.44961156
3534.00   0.69777199
3536.00   0.69399510
3538.00   0.79446255
3540.00   0.52660164
3542.00   0.55083685
3544.00   0.75058571
3546.00   0.46193295
3548.00   0.36420607
3550.00   0.53763462
3552.00   0.68455358
3554.00   0.78875674
3556.00   0.80680811
3558.00   0.48868987
3560.00   0.70784521
3562.00   0.70894717
3564.00   0.58951585
3566.00   0.53647853
3568.00   0.73232186
3570.00   0.46753952
3572.00   0.51306876
3574.00   0.54582943
3576.00   0.47919140
3578.00   0.52728173
3580.00   0.66003997
3582.00   0.70762886
3584.00   0.45100527
3586.00   0.60473644
3588.00   0.42889851
3590.00   0.63722074
3592.00   0.50547623
3594.00   0.54082195
3596.00   0.38626902
3598.00   0.55799275
3600.00   0.64860521
3602.00   0.36591359
3604.00   0.56524639
3606.00   0.40172204
3608.00   0.47169590
3610.00   0.62609924
3612.00   0.48954414
3614.00   0.50716012
3616.00   0.54430874
3618.00   0.66610074
3620.00   0.60692819
3622.00   0.70555974
3624.00   0.59795364
3626.00   0.60828763
3628.00   0.62108053
3630.00   0.50448571
3632.00   0.39067872
3634.00   0.47581715
3636.00   0.57047325
3638.00   0.60621342
3640.00   0.54511408
3642.00   0.67070994
3644.00   0.56601794
3646.00   0.64800576
3648.00   0.80238538
3650.00   0.31515884
3652.00   0.19109349
3654.00   0.85740651
3656.00   0.75516203
3658.00   0.73900060
3660.00   0.78753794
3662.00   0.84462975
3664.00   0.52913290
3666.00   0.66063564
3668.00   0.57449152
3670.00   0.63476542
3672.00   0.52092947
3674.00   0.45346395
3676.00   0.61959417
3678.00   0.52976124
3680.00   0.50172528
3682.00   0.75362025
3684.00   0.65542090
3686.00   0.60699901
3688.00   0.60171105
3690.00   0.51615089
3692.00   0.53505672
3694.00   0.44475393
3696.00   0.60960543
3698.00   0.37105007
3700.00   0.54591036
3702.00   0.53280264
3704.00   0.77461504
3706.00   0.57248505
3708.00   0.50775026
3710.00   0.59037486
3712.00   0.46626310
3714.00   0.57915295
3716.00   0.60419854
3718.00   0.52407239
3720.00   0.53097250
3722.00   0.56964840
3724.00   0.53293682
3726.00   0.54854745
3728.00   0.63190129
3730.00   0.53388299
3732.00   0.46620870
3734.00   0.55385924
3736.00   0.56228860
3738.00   0.54949151
3740.00   0.44591658
3742.00   0.60254780
3744.00   0.54837720
3746.00   0.55136073
3748.00   0.61122566
3750.00   0.62971537
3752.00   0.57675880
3754.00   0.44665137
3756.00   0.65780418
3758.00   0.66973673
3760.00   0.56734597
3762.00   0.57007709
3764.00   0.62040455
3766.00   0.61979049
3768.00   0.61857888
3770.00   0.73922375
3772.00   0.64711298
3774.00   0.57534620
3776.00   0.51468954
3778.00   0.56875537
3780.00   0.70691177
3782.00   0.50821940
3784.00   0.63123448
3786.00   0.51525575
3788.00   0.53930478
3790.00   0.53867057
3792.00   0.58613339
3794.00   0.56748046
3796.00   0.54020960
3798.00   0.50195255
3800.00   0.67601774
3802.00   0.68546826
3804.00   0.64958315
3806.00   0.60628771
3808.00   0.51951712
3810.00   0.54445409
3812.00   0.38346796
3814.00   0.72906598
3816.00   0.58383646
3818.00   0.66668407
3820.00   0.52192362
3822.00   0.61984703
3824.00   0.65354947
3826.00   0.68399961
3828.00   0.61446914
3830.00   0.58084573
3832.00   0.55868418
3834.00   0.56796663
3836.00   0.68138750
3838.00   0.67193646
3840.00   0.65905283
3842.00   0.60731076
3844.00   0.67185795
3846.00   0.70680595
3848.00   0.61020545
3850.00   0.54274661
3852.00   0.60018274
3854.00   0.64926076
3856.00   0.62922651
3858.00   0.54747043
3860.00   0.54780820
3862.00   0.59366280
3864.00   0.63767805
3866.00   0.57029248
3868.00   0.53058245
3870.00   0.54897285
3872.00   0.55166953
3874.00   0.61426846
3876.00   0.64005307
3878.00   0.51330227
3880.00   0.66638548
3882.00   0.50779991
3884.00   0.43461587
3886.00   0.62498765
3888.00   0.62003752
3890.00   0.58951042
3892.00   0.58992649
3894.00   0.60544555
3896.00   0.59502845
3898.00   0.68958201
3900.00   0.58177204
3902.00   0.63948431
3904.00   0.53883132
3906.00   0.72117729
3908.00   0.68743533
3910.00   0.61792158
3912.00   0.50731197
3914.00   0.56148110
3916.00   0.57760139
3918.00   0.67133605
3920.00   0.56812461
3922.00   0.57839550
3924.00   0.54094372
3926.00   0.68356604
3928.00   0.68671523
3930.00   0.60794352
3932.00   0.57758159
3934.00   0.54519176
3936.00   0.61625102
3938.00   0.62949631
3940.00   0.61359280
3942.00   0.66660984
3944.00   0.70600589
3946.00   0.63079192
3948.00   0.55998557
3950.00   0.61887347
3952.00   0.70459795
3954.00   0.68593381
3956.00   0.60703976
3958.00   0.61455144
3960.00   0.61149620
3962.00   0.57847914
3964.00   0.59477350
3966.00   0.57794276
3968.00   0.61023247
3970.00   0.63269175
3972.00   0.66599031
3974.00   0.64836263
3976.00   0.60608212
3978.00   0.73648075
3980.00   0.67958787
3982.00   0.79668313
3984.00   0.72802077
3986.00   0.70190561
3988.00   0.63039873
3990.00   0.61916406
3992.00   0.61107423
3994.00   0.65547629
3996.00   0.70106288
3998.00   0.64041092
4000.00   0.79991862
4002.00   0.69547247
4004.00   0.60464676
4006.00   0.60283684
4008.00   0.59434375
4010.00   0.63974712
4012.00   0.63916849
4014.00   0.64371590
4016.00   0.55442982
4018.00   0.73931822
4020.00   0.76986643
4022.00   0.68756527
4024.00   0.65061279
4026.00   0.60325022
4028.00   0.55728805
4030.00   0.74906201
4032.00   0.75868715
4034.00   0.75940091
4036.00   0.70679574
4038.00   0.64376432
4040.00   0.65289887
4042.00   0.65079668
4044.00   0.61005062
4046.00   0.57781253
4048.00   0.63190811
4050.00   0.62498506
4052.00   0.64703718
4054.00   0.58309255
4056.00   0.60236790
4058.00   0.59562827
4060.00   0.65057887
4062.00   0.62920710
4064.00   0.71032342
4066.00   0.70211163
4068.00   0.66693949
4070.00   0.66369541
4072.00   0.55201551
4074.00   0.70727353
4076.00   0.70269226
4078.00   0.68102498
4080.00   0.58032466
4082.00   0.63788781
4084.00   0.57617326
4086.00   0.56881792
4088.00   0.58939993
4090.00   0.63693455
4092.00   0.57877062
4094.00   0.58580108
4096.00   0.52174497
4098.00   0.59848479
4100.00   0.57872632
4102.00   0.60354979
4104.00   0.66290979
4106.00   0.64484110
4108.00   0.67843766
4110.00   0.62591311
4112.00   0.62707459
4114.00   0.58016042
4116.00   0.64401522
4118.00   0.66168371
4120.00   0.62352487
4122.00   0.65022243
4124.00   0.58521025
4126.00   0.67135255
4128.00   0.61083739
4130.00   0.59338843
4132.00   0.64576424
4134.00   0.58885441
4136.00   0.61507145
4138.00   0.67892114
4140.00   0.62724924
4142.00   0.57824719
4144.00   0.55948268
4146.00   0.50761974
4148.00   0.55345083
4150.00   0.48445408
4152.00   0.50660432
4154.00   0.58302801
4156.00   0.56401795
4158.00   0.63531628
4160.00   0.62139082
4162.00   0.62426287
4164.00   0.63729527
4166.00   0.63956746
4168.00   0.62013836
4170.00   0.65991729
4172.00   0.68788511
4174.00   0.64919167
4176.00   0.65050146
4178.00   0.60669849
4180.00   0.62805525
4182.00   0.62371833
4184.00   0.58558379
4186.00   0.57607236
4188.00   0.70513965
4190.00   0.63861475
4192.00   0.67245971
4194.00   0.64918674
4196.00   0.60197157
4198.00   0.59597639
4200.00   0.57690686
4202.00   0.57205590
4204.00   0.57651460
4206.00   0.62689100
4208.00   0.66727615
4210.00   0.68016436
4212.00   0.65965962
4214.00   0.65662537
4216.00   0.71738335
4218.00   0.67203922
4220.00   0.68582548
4222.00   0.74005674
4224.00   0.66461823
4226.00   0.63055776
4228.00   0.65650679
4230.00   0.66675255
4232.00   0.67188037
4234.00   0.66178435
4236.00   0.65438760
4238.00   0.60926151
4240.00   0.62773951
4242.00   0.61126363
4244.00   0.66485200
4246.00   0.69761199
4248.00   0.77252092
4250.00   0.68569033
4252.00   0.72013717
4254.00   0.73578932
4256.00   0.73053118
4258.00   0.73933454
4260.00   0.78066406
4262.00   0.75313641
4264.00   0.76953608
4266.00   0.74942318
4268.00   0.72284636
4270.00   0.68981292
4272.00   0.70701766
4274.00   0.71349229
4276.00   0.74970212
4278.00   0.76167700
4280.00   0.75265633
4282.00   0.73344360
4284.00   0.73878812
4286.00   0.69942310
4288.00   0.70666328
4290.00   0.69073747
4292.00   0.69079371
4294.00   0.69797563
4296.00   0.65917854
4298.00   0.66379362
4300.00   0.67315494
4302.00   0.71371971
4304.00   0.70867919
4306.00   0.70146551
4308.00   0.75671685
4310.00   0.68619131
4312.00   0.71600872
4314.00   0.79538197
4316.00   0.72071371
4318.00   0.64669167
4320.00   0.68650115
4322.00   0.74071315
4324.00   0.72707144
4326.00   0.68599452
4328.00   0.66932496
4330.00   0.74056799
4332.00   0.71795024
4334.00   0.66822405
4336.00   0.64547435
4338.00   0.65078603
4340.00   0.64511051
4342.00   0.69431748
4344.00   0.73955896
4346.00   0.69520067
4348.00   0.68586210
4350.00   0.65804689
4352.00   0.67493656
4354.00   0.62819499
4356.00   0.64171070
4358.00   0.70462969
4360.00   0.73193713
4362.00   0.80504072
4364.00   0.66581410
4366.00   0.72955730
4368.00   0.64284656
4370.00   0.65037025
4372.00   0.65128190
4374.00   0.67784833
4376.00   0.63758733
4378.00   0.58929694
4380.00   0.62547803
4382.00   0.68069496
4384.00   0.67436286
4386.00   0.70808903
4388.00   0.62348059
4390.00   0.63163467
4392.00   0.66770160
4394.00   0.67098466
4396.00   0.61917896
4398.00   0.63572546
4400.00   0.65562251
4402.00   0.69072986
4404.00   0.68070671
4406.00   0.70080036
4408.00   0.63544479
4410.00   0.60157103
4412.00   0.63325181
4414.00   0.65822811
4416.00   0.63509957
4418.00   0.68307822
4420.00   0.63126742
4422.00   0.65459990
4424.00   0.62148201
4426.00   0.69499914
4428.00   0.64521559
4430.00   0.73491249
4432.00   0.68201516
4434.00   0.68999079
4436.00   0.66188887
4438.00   0.64862161
4440.00   0.61938529
4442.00   0.66624396
4444.00   0.63187093
4446.00   0.65889533
4448.00   0.61395566
4450.00   0.67940687
4452.00   0.67732031
4454.00   0.67566250
4456.00   0.66183805
4458.00   0.66718315
4460.00   0.69692638
4462.00   0.66683988
4464.00   0.67049980
4466.00   0.71777463
4468.00   0.66275934
4470.00   0.64999178
4472.00   0.65777403
4474.00   0.69753088
4476.00   0.68626038
4478.00   0.65558233
4480.00   0.72836563
4482.00   0.66182842
4484.00   0.69302668
4486.00   0.66559452
4488.00   0.68022888
4490.00   0.69710326
4492.00   0.66974996
4494.00   0.71724480
4496.00   0.67372233
4498.00   0.64409291
4500.00   0.65916758
4502.00   0.62287648
4504.00   0.66697750
4506.00   0.67144480
4508.00   0.70980851
4510.00   0.59492018
4512.00   0.65260999
4514.00   0.59405109
4516.00   0.62499458
4518.00   0.68130275
4520.00   0.65936394
4522.00   0.69264183
4524.00   0.63923608
4526.00   0.67399328
4528.00   0.72162747
4530.00   0.63497493
4532.00   0.71343398
4534.00   0.59737163
4536.00   0.68060522
4538.00   0.69238356
4540.00   0.63998006
4542.00   0.66569110
4544.00   0.66454183
4546.00   0.56188506
4548.00   0.70863309
4550.00   0.69061749
4552.00   0.67063316
4554.00   0.65653703
4556.00   0.63233824
4558.00   0.64502173
4560.00   0.69112080
4562.00   0.68015346
4564.00   0.63548946
4566.00   0.66761727
4568.00   0.62059434
4570.00   0.68016233
4572.00   0.64218313
4574.00   0.60214082
4576.00   0.66378120
4578.00   0.65830029
4580.00   0.62630273
4582.00   0.62922511
4584.00   0.61031707
4586.00   0.69837838
4588.00   0.62387824
4590.00   0.66053354
4592.00   0.61714357
4594.00   0.66679406
4596.00   0.65256503
4598.00   0.65316594
4600.00   0.58084910
4602.00   0.64101398
4604.00   0.68223234
4606.00   0.66267966
4608.00   0.67158685
4610.00   0.67759138
4612.00   0.65120978
4614.00   0.61189020
4616.00   0.63700729
4618.00   0.62589163
4620.00   0.66037608
4622.00   0.64951669
4624.00   0.63223944
4626.00   0.66786701
4628.00   0.61820333
4630.00   0.62756949
4632.00   0.60489751
4634.00   0.63173177
4636.00   0.65484790
4638.00   0.67455524
4640.00   0.65819413
4642.00   0.62215605
4644.00   0.64538137
4646.00   0.60723548
4648.00   0.68181706
4650.00   0.64757505
4652.00   0.63937165
4654.00   0.63678834
4656.00   0.63112691
4658.00   0.63476161
4660.00   0.60777950
4662.00   0.58233248
4664.00   0.62516791
4666.00   0.64496553
4668.00   0.62934565
4670.00   0.67425524
4672.00   0.57716231
4674.00   0.60277409
4676.00   0.60635380
4678.00   0.62545229
4680.00   0.62102441
4682.00   0.60372967
4684.00   0.59176213
4686.00   0.61633948
4688.00   0.59136842
4690.00   0.57094124
4692.00   0.58948723
4694.00   0.61714850
4696.00   0.61621666
4698.00   0.59359903
4700.00   0.60603204
4702.00   0.58142420
4704.00   0.59499739
4706.00   0.60720808
4708.00   0.60556384
4710.00   0.57631215
4712.00   0.56968131
4714.00   0.57434220
4716.00   0.58672874
4718.00   0.59088765
4720.00   0.62321159
4722.00   0.62053319
4724.00   0.58347308
4726.00   0.61419365
4728.00   0.59147039
4730.00   0.58201113
4732.00   0.57874462
4734.00   0.61832278
4736.00   0.54317296
4738.00   0.59307612
4740.00   0.60372805
4742.00   0.60758524
4744.00   0.59752998
4746.00   0.59868680
4748.00   0.63240694
4750.00   0.56145366
4752.00   0.58235116
4754.00   0.56793192
4756.00   0.55574118
4758.00   0.60217380
4760.00   0.56566678
4762.00   0.61182241
4764.00   0.53378032
4766.00   0.57962100
4768.00   0.59508702
4770.00   0.59329221
4772.00   0.58955543
4774.00   0.58611194
4776.00   0.61361495
4778.00   0.62265110
4780.00   0.60531693
4782.00   0.62907055
4784.00   0.58767955
4786.00   0.61661077
4788.00   0.58119121
4790.00   0.62487335
4792.00   0.63433096
4794.00   0.61095733
4796.00   0.60341513
4798.00   0.56457318
4800.00   0.63001060
4802.00   0.55132681
4804.00   0.64290841
4806.00   0.63489594
4808.00   0.64363036
4810.00   0.60549864
4812.00   0.63515907
4814.00   0.65258386
4816.00   0.66070128
4818.00   0.64730090
4820.00   0.63973207
4822.00   0.64811321
4824.00   0.62876721
4826.00   0.66840468
4828.00   0.66550424
4830.00   0.65705565
4832.00   0.63271254
4834.00   0.68353206
4836.00   0.68448493
4838.00   0.66415129
4840.00   0.66498227
4842.00   0.64906926
4844.00   0.70083255
4846.00   0.65344488
4848.00   0.66032681
4850.00   0.66440728
4852.00   0.64611128
4854.00   0.65309874
4856.00   0.67558831
4858.00   0.67171639
4860.00   0.67506563
4862.00   0.74199516
4864.00   0.68404640
4866.00   0.71293863
4868.00   0.69594648
4870.00   0.69875068
4872.00   0.69819230
4874.00   0.68367769
4876.00   0.70029866
4878.00   0.71265920
4880.00   0.71490967
4882.00   0.68362816
4884.00   0.70963994
4886.00   0.70387517
4888.00   0.71643161
4890.00   0.70499990
4892.00   0.73012606
4894.00   0.76527677
4896.00   0.76853163
4898.00   0.78424602
4900.00   0.79976571
4902.00   0.74423560
4904.00   0.74083980
4906.00   0.76089438
4908.00   0.74225238
4910.00   0.75257305
4912.00   0.75684570
4914.00   0.80084815
4916.00   0.79879742
4918.00   0.76402432
4920.00   0.77307458
4922.00   0.78474063
4924.00   0.82063862
4926.00   0.76827920
4928.00   0.80956187
4930.00   0.76435763
4932.00   0.76801954
4934.00   0.79135344
4936.00   0.82410408
4938.00   0.78509224
4940.00   0.79238307
4942.00   0.80239365
4944.00   0.80976463
4946.00   0.79650919
4948.00   0.81350961
4950.00   0.78073879
4952.00   0.81999623
4954.00   0.76972177
4956.00   0.76401734
4958.00   0.78536739
4960.00   0.75585383
4962.00   0.75351882
4964.00   0.77069632
4966.00   0.76566294
4968.00   0.77119989
4970.00   0.73559538
4972.00   0.75793011
4974.00   0.74545078
4976.00   0.79751828
4978.00   0.77391908
4980.00   0.78159015
4982.00   0.76375488
4984.00   0.77370961
4986.00   0.75976519
4988.00   0.70300696
4990.00   0.72157313
4992.00   0.67090055
4994.00   0.70439384
4996.00   0.73783411
4998.00   0.73114309
5000.00   0.72429730
5002.00   0.73936420
5004.00   0.71824031
5006.00   0.72196690
5008.00   0.72510520
5010.00   0.71605045
5012.00   0.71524421
5014.00   0.69604458
5016.00   0.70137624
5018.00   0.70268562
5020.00   0.71230101
5022.00   0.65687171
5024.00   0.69966479
5026.00   0.70274482
5028.00   0.66302156
5030.00   0.69809377
5032.00   0.64974014
5034.00   0.68072996
5036.00   0.63675883
5038.00   0.68583312
5040.00   0.66977790
5042.00   0.65141573
5044.00   0.64559874
5046.00   0.67091513
5048.00   0.64214389
5050.00   0.67457751
5052.00   0.64313248
5054.00   0.62751572
5056.00   0.65881677
5058.00   0.61413958
5060.00   0.61226177
5062.00   0.64247969
5064.00   0.60830548
5066.00   0.63787930
5068.00   0.62449483
5070.00   0.61854734
5072.00   0.64113850
5074.00   0.63666811
5076.00   0.60703739
5078.00   0.63327294
5080.00   0.64049148
5082.00   0.63004217
5084.00   0.61707036
5086.00   0.63388392
5088.00   0.61128568
5090.00   0.60131343
5092.00   0.61496162
5094.00   0.61291088
5096.00   0.65333616
5098.00   0.62585349
5100.00   0.62986070
5102.00   0.59701963
5104.00   0.62830449
5106.00   0.65434707
5108.00   0.63142182
5110.00   0.61740335
5112.00   0.60276737
5114.00   0.58881992
5116.00   0.64280420
5118.00   0.63017637
5120.00   0.60034681
5122.00   0.60673013
5124.00   0.60451959
5126.00   0.59492399
5128.00   0.66697227
5130.00   0.61544857
5132.00   0.64814578
5134.00   0.63043867
5136.00   0.61798619
5138.00   0.57179195
5140.00   0.61167238
5142.00   0.59790148
5144.00   0.61334357
5146.00   0.62998988
5148.00   0.62409683
5150.00   0.61729369
5152.00   0.58104270
5154.00   0.63591017
5156.00   0.62409854
5158.00   0.57246868
5160.00   0.60576645
5162.00   0.59705957
5164.00   0.61670889
5166.00   0.61258381
5168.00   0.58172134
5170.00   0.60176190
5172.00   0.61450626
5174.00   0.61511954
5176.00   0.61362742
5178.00   0.65451305
5180.00   0.65406949
5182.00   0.62908659
5184.00   0.61733290
5186.00   0.59689637
5188.00   0.55624846
5190.00   0.63760618
5192.00   0.69397233
5194.00   0.69971191
5196.00   0.66818282
5198.00   0.64120122
5200.00   0.62850745
5202.00   0.62124480
5204.00   0.63588087
5206.00   0.62704386
5208.00   0.58203811
5210.00   0.59092240
5212.00   0.54211801
5214.00   0.61717721
5216.00   0.60363126
5218.00   0.59154712
5220.00   0.60006091
5222.00   0.60408165
5224.00   0.61540829
5226.00   0.63907639
5228.00   0.61342453
5230.00   0.59443504
5232.00   0.58986807
5234.00   0.61400001
5236.00   0.62088694
5238.00   0.60773618
5240.00   0.61949171
5242.00   0.58378415
5244.00   0.63811998
5246.00   0.61874999
5248.00   0.63081975
5250.00   0.62695498
5252.00   0.59965868
5254.00   0.65247543
5256.00   0.65163336
5258.00   0.63681554
5260.00   0.64644940
5262.00   0.61764319
5264.00   0.64845870
5266.00   0.65288331
5268.00   0.62521973
5270.00   0.63394179
5272.00   0.64238752
5274.00   0.66789055
5276.00   0.63943326
5278.00   0.61495474
5280.00   0.58023630
5282.00   0.60822515
5284.00   0.62772128
5286.00   0.63023372
5288.00   0.63544385
5290.00   0.62604463
5292.00   0.58615047
5294.00   0.62086911
5296.00   0.61835621
5298.00   0.60573225
5300.00   0.61092873
5302.00   0.62662623
5304.00   0.60560753
5306.00   0.59701784
5308.00   0.59768362
5310.00   0.56157754
5312.00   0.61324811
5314.00   0.54116125
5316.00   0.58783650
5318.00   0.59993563
5320.00   0.58963291
5322.00   0.54777986
5324.00   0.54969453
5326.00   0.54147958
5328.00   0.53468511
5330.00   0.59329500
5332.00   0.56307191
