# File created by shivutils (I.Shivvers)
# Blotched regions marked with a #.
# wl(A)   flm    er(optional)
3422.00   0.10359708
3424.00   0.71466757
3426.00   0.64243804
3428.00   0.36691383
3430.00   0.15849484
3432.00   0.28100689
3434.00   0.32794204
3436.00   0.45848450
3438.00   0.32252853
3440.00   0.69635039
3442.00   0.28588132
3444.00   0.44311806
3446.00   0.34020927
3448.00   0.53663745
3450.00   0.43491373
3452.00   0.48155282
3454.00   0.40918752
3456.00   0.50258500
3458.00   0.45442698
3460.00   0.38678885
3462.00   0.45452329
3464.00   0.36264630
3466.00   0.44845029
3468.00   0.46017296
3470.00   0.62227384
3472.00   0.25267701
3474.00   0.43356665
3476.00   0.25388041
3478.00   0.30516034
3480.00   0.30485234
3482.00   0.52117169
3484.00   0.49389277
3486.00   0.33020181
3488.00   0.76380967
3490.00   0.45437377
3492.00   0.30524554
3494.00   0.34646658
3496.00   0.49954135
3498.00   0.44432993
3500.00   0.16899510
3502.00   0.27900767
3504.00   0.60584436
3506.00   0.52346913
3508.00   0.58341120
3510.00   0.37108486
3512.00   0.44632237
3514.00   0.42679210
3516.00   0.43197122
3518.00   0.37687632
3520.00   0.74996009
3522.00   0.66930909
3524.00   0.59963815
3526.00   0.75797364
3528.00   0.54834545
3530.00   0.54622801
3532.00   0.68592457
3534.00   0.40675378
3536.00   0.40991774
3538.00   0.66613116
3540.00   0.49764285
3542.00   0.41871834
3544.00   0.39922526
3546.00   0.76996431
3548.00   0.33131563
3550.00   0.38699722
3552.00   0.40066792
3554.00   0.44127440
3556.00   0.49771852
3558.00   0.38019676
3560.00   0.34070377
3562.00   0.59908788
3564.00   0.62755835
3566.00   0.40131632
3568.00   0.57080667
3570.00   0.28530666
3572.00   0.38117331
3574.00   0.76718308
3576.00   0.44927373
3578.00   0.51412865
3580.00   0.49548634
3582.00   0.29845525
3584.00   0.57453480
3586.00   0.42877924
3588.00   0.39286202
3590.00   0.37610962
3592.00   0.68725772
3594.00   0.59861918
3596.00   0.56904759
3598.00   0.48627525
3600.00   0.54316778
3602.00   0.54113919
3604.00   0.47438737
3606.00   0.40600337
3608.00   0.52203897
3610.00   0.45430310
3612.00   0.55081369
3614.00   0.49647853
3616.00   0.45585572
3618.00   0.61001844
3620.00   0.46605150
3622.00   0.34501797
3624.00   0.59997456
3626.00   0.59916141
3628.00   0.47751157
3630.00   0.52576685
3632.00   0.38314746
3634.00   0.67750555
3636.00   0.79902669
3638.00   0.66548241
3640.00   0.36743561
3642.00   0.54985092
3644.00   0.75231683
3646.00   0.69073425
3648.00   0.64494552
3650.00   0.81844792
3652.00   0.76368937
3654.00   0.57335917
3656.00   0.46322828
3658.00   0.59237041
3660.00   0.68304362
3662.00   0.48511940
3664.00   0.59388159
3666.00   0.62772340
3668.00   0.68542374
3670.00   0.71607388
3672.00   0.65759160
3674.00   0.58058339
3676.00   0.70235176
3678.00   0.55149539
3680.00   0.58522435
3682.00   0.60844830
3684.00   0.49599648
3686.00   0.52320508
3688.00   0.59343334
3690.00   0.55975319
3692.00   0.63580534
3694.00   0.73183961
3696.00   0.67656026
3698.00   0.63069318
3700.00   0.54934803
3702.00   0.74601730
3704.00   0.73098315
3706.00   0.68735906
3708.00   0.66309781
3710.00   0.82826801
3712.00   0.71491491
3714.00   0.74431064
3716.00   0.78411777
3718.00   0.61893149
3720.00   0.76199598
3722.00   0.73738454
3724.00   0.71010278
3726.00   0.81392231
3728.00   0.68522588
3730.00   0.65625057
3732.00   0.62325506
3734.00   0.62698599
3736.00   0.61969944
3738.00   0.87544985
3740.00   0.78108291
3742.00   0.74619152
3744.00   0.62213195
3746.00   0.73706114
3748.00   0.81776407
3750.00   0.72106372
3752.00   0.62850376
3754.00   0.62438938
3756.00   0.68201283
3758.00   0.72200199
3760.00   0.73813285
3762.00   0.72357920
3764.00   0.69334720
3766.00   0.74360637
3768.00   0.59539429
3770.00   0.56055849
3772.00   0.71124038
3774.00   0.74444830
3776.00   0.72877490
3778.00   0.62917170
3780.00   0.70313652
3782.00   0.71609202
3784.00   0.61502933
3786.00   0.70529973
3788.00   0.72407095
3790.00   0.72242142
3792.00   0.67445896
3794.00   0.69183620
3796.00   0.68725297
3798.00   0.75190382
3800.00   0.76496892
3802.00   0.71100830
3804.00   0.77476855
3806.00   0.78006917
3808.00   0.74757388
3810.00   0.81154130
3812.00   0.73282768
3814.00   0.82340954
3816.00   0.85610804
3818.00   0.87595505
3820.00   0.84997264
3822.00   0.80672956
3824.00   0.88783948
3826.00   0.89877119
3828.00   0.90677336
3830.00   0.85638160
3832.00   0.86874658
3834.00   0.93086050
3836.00   0.84564877
3838.00   0.74999344
3840.00   0.85947160
3842.00   0.77373972
3844.00   0.80820767
3846.00   0.83495864
3848.00   0.82623016
3850.00   0.75524780
3852.00   0.72075886
3854.00   0.68039553
3856.00   0.68285800
3858.00   0.72582717
3860.00   0.63623338
3862.00   0.64241222
3864.00   0.58516855
3866.00   0.62130020
3868.00   0.62921506
3870.00   0.63037619
3872.00   0.65542078
3874.00   0.69569441
3876.00   0.66288884
3878.00   0.57304906
3880.00   0.52327483
3882.00   0.63617629
3884.00   0.68046442
3886.00   0.81815654
3888.00   0.83124489
3890.00   0.65029636
3892.00   0.69182450
3894.00   0.64418097
3896.00   0.61586966
3898.00   0.60681984
3900.00   0.68432759
3902.00   0.78017324
3904.00   0.73361737
3906.00   0.83371359
3908.00   0.73128399
3910.00   0.65321472
3912.00   0.63097169
3914.00   0.63774383
3916.00   0.74581400
3918.00   0.65994443
3920.00   0.61136312
3922.00   0.71210623
3924.00   0.63353289
3926.00   0.63449718
3928.00   0.64106405
3930.00   0.61146449
3932.00   0.61222767
3934.00   0.63770887
3936.00   0.74939344
3938.00   0.70464760
3940.00   0.63231371
3942.00   0.70713546
3944.00   0.61928165
3946.00   0.70136956
3948.00   0.63064407
3950.00   0.59707022
3952.00   0.61112065
3954.00   0.68462141
3956.00   0.59733892
3958.00   0.52113051
3960.00   0.52825659
3962.00   0.56678617
3964.00   0.57379833
3966.00   0.61587002
3968.00   0.56364526
3970.00   0.65817090
3972.00   0.63323935
3974.00   0.62514499
3976.00   0.62627061
3978.00   0.67280116
3980.00   0.63574467
3982.00   0.59380452
3984.00   0.52063363
3986.00   0.65891674
3988.00   0.67581206
3990.00   0.59168065
3992.00   0.59340781
3994.00   0.70963799
3996.00   0.68447244
3998.00   0.58139885
4000.00   0.67435637
4002.00   0.69647282
4004.00   0.70290965
4006.00   0.71245502
4008.00   0.71608446
4010.00   0.72929968
4012.00   0.76877950
4014.00   0.78840127
4016.00   0.76197827
4018.00   0.88028255
4020.00   0.89587308
4022.00   0.85842671
4024.00   0.78119965
4026.00   0.86169871
4028.00   0.91459688
4030.00   0.99507132
4032.00   0.97368712
4034.00   1.04429961
4036.00   0.88175263
4038.00   0.88663264
4040.00   0.89817803
4042.00   1.00099741
4044.00   1.05208510
4046.00   1.18724856
4048.00   0.88990726
4050.00   1.02110094
4052.00   1.00080238
4054.00   0.96430340
4056.00   1.13715202
4058.00   1.09633912
4060.00   1.02682002
4062.00   1.10817774
4064.00   1.20266436
4066.00   1.09047229
4068.00   1.12747657
4070.00   1.28145966
4072.00   1.11548412
4074.00   1.08515061
4076.00   1.21879357
4078.00   1.15689127
4080.00   1.11058613
4082.00   1.11620076
4084.00   1.26336296
4086.00   1.19701016
4088.00   1.13173354
4090.00   1.11650855
4092.00   1.18133892
4094.00   1.20654586
4096.00   1.09579656
4098.00   1.21406948
4100.00   0.97980754
4102.00   0.82422531
4104.00   0.86283701
4106.00   1.14224847
4108.00   1.14523074
4110.00   1.21795409
4112.00   1.12757236
4114.00   1.17988439
4116.00   1.21823666
4118.00   1.17718470
4120.00   1.20873121
4122.00   1.15046432
4124.00   1.08985881
4126.00   1.09690909
4128.00   1.11522990
4130.00   1.15157349
4132.00   0.99922244
4134.00   0.96936241
4136.00   0.90855259
4138.00   0.89181447
4140.00   0.87576634
4142.00   0.90710828
4144.00   0.97641447
4146.00   0.93729681
4148.00   0.92549286
4150.00   1.01252650
4152.00   0.92804697
4154.00   0.88508368
4156.00   0.93946753
4158.00   0.92835609
4160.00   0.82439356
4162.00   0.96217406
4164.00   0.97746316
4166.00   0.93267664
4168.00   0.97519016
4170.00   0.92867795
4172.00   0.93035245
4174.00   0.88227388
4176.00   0.86847322
4178.00   0.88506922
4180.00   0.88261222
4182.00   0.81168423
4184.00   0.88509817
4186.00   0.91364652
4188.00   0.92159293
4190.00   0.93175963
4192.00   0.92803297
4194.00   0.95816734
4196.00   0.91921565
4198.00   0.95511449
4200.00   1.01150724
4202.00   1.01074130
4204.00   0.94203756
4206.00   1.01194595
4208.00   0.96145414
4210.00   1.06902516
4212.00   0.99953610
4214.00   0.97093474
4216.00   0.97428848
4218.00   0.98627940
4220.00   1.03299523
4222.00   1.11469217
4224.00   1.10083773
4226.00   1.10997534
4228.00   1.03916115
4230.00   1.05873058
4232.00   1.05962394
4234.00   1.08447493
4236.00   1.00763671
4238.00   1.01451060
4240.00   0.99739157
4242.00   1.02418497
4244.00   0.97623673
4246.00   0.95917042
4248.00   1.03041357
4250.00   1.05219209
4252.00   1.03279545
4254.00   0.99749686
4256.00   0.97780866
4258.00   1.05922865
4260.00   1.04072600
4262.00   1.05300630
4264.00   1.05224444
4266.00   1.04980627
4268.00   1.03642549
4270.00   1.03338980
4272.00   1.01203503
4274.00   1.04202368
4276.00   0.94942070
4278.00   0.99149803
4280.00   0.97360544
4282.00   0.99190841
4284.00   1.03730210
4286.00   0.97305031
4288.00   1.00764439
4290.00   1.00712390
4292.00   1.01245387
4294.00   1.04151255
4296.00   1.03886621
4298.00   1.04118562
4300.00   0.99479804
4302.00   1.09507986
4304.00   1.06891412
4306.00   1.06721639
4308.00   1.02675573
4310.00   1.01702036
4312.00   1.01864584
4314.00   0.99434428
4316.00   1.10896013
4318.00   1.04402335
4320.00   1.01551285
4322.00   1.06383618
4324.00   1.12717388
4326.00   1.08239745
4328.00   1.09378033
4330.00   1.08472255
4332.00   1.14069532
4334.00   1.09789789
4336.00   1.08876968
4338.00   1.09489701
4340.00   1.19056704
4342.00   1.12652796
4344.00   1.01442714
4346.00   1.13321458
4348.00   1.18250369
4350.00   1.17555081
4352.00   1.11123474
4354.00   1.17108516
4356.00   1.32947596
4358.00   1.03972941
4360.00   1.01922488
4362.00   1.10951341
4364.00   1.12292827
4366.00   1.12204649
4368.00   1.06962841
4370.00   1.16319980
4372.00   1.19513050
4374.00   1.05792664
4376.00   1.03002229
4378.00   1.04148789
4380.00   1.10150817
4382.00   1.05650004
4384.00   1.09906629
4386.00   1.17456997
4388.00   1.08703707
4390.00   1.04502585
4392.00   1.04714865
4394.00   0.99786474
4396.00   1.09640466
4398.00   1.01992364
4400.00   1.04397632
4402.00   1.10928524
4404.00   1.04193149
4406.00   0.97658932
4408.00   0.96148739
4410.00   1.02424793
4412.00   1.04762385
4414.00   1.04421894
4416.00   1.06623028
4418.00   1.06884428
4420.00   1.01732403
4422.00   0.99673849
4424.00   1.02684670
4426.00   1.02275942
4428.00   1.00471105
4430.00   0.93880799
4432.00   1.01710938
4434.00   0.90955983
4436.00   0.98368778
4438.00   0.91180762
4440.00   0.99045877
4442.00   0.97756684
4444.00   0.91453699
4446.00   1.00599678
4448.00   0.94431447
4450.00   0.92925577
4452.00   0.96446613
4454.00   0.97300174
4456.00   0.98793671
4458.00   1.04837645
4460.00   0.94788777
4462.00   1.03184607
4464.00   0.92876225
4466.00   0.89862606
4468.00   0.88335666
4470.00   0.87025311
4472.00   0.85322774
4474.00   0.86531615
4476.00   0.87255461
4478.00   0.84480911
4480.00   0.94288103
4482.00   0.90459583
4484.00   0.83813593
4486.00   0.83423697
4488.00   0.83594929
4490.00   0.78958144
4492.00   0.83460200
4494.00   0.79154243
4496.00   0.82072256
4498.00   0.87229606
4500.00   0.84942261
4502.00   0.91124128
4504.00   0.85939753
4506.00   0.89412483
4508.00   0.87427202
4510.00   0.82845790
4512.00   0.80663384
4514.00   0.80285997
4516.00   0.88565169
4518.00   0.86902699
4520.00   0.90739330
4522.00   0.81019509
4524.00   0.86875706
4526.00   0.81523067
4528.00   0.80875428
4530.00   0.87647309
4532.00   0.82783471
4534.00   0.85190747
4536.00   0.83762620
4538.00   0.83656459
4540.00   0.79893153
4542.00   0.82064200
4544.00   0.82177247
4546.00   0.85497536
4548.00   0.85815168
4550.00   0.79147164
4552.00   0.84115124
4554.00   0.86207320
4556.00   0.84426285
4558.00   0.75136773
4560.00   0.78637261
4562.00   0.83348528
4564.00   0.83292027
4566.00   0.81305685
4568.00   0.82620072
4570.00   0.77506561
4572.00   0.76742515
4574.00   0.71018691
4576.00   0.79174388
4578.00   0.79689309
4580.00   0.84230577
4582.00   0.78618648
4584.00   0.83482838
4586.00   0.78497321
4588.00   0.77319015
4590.00   0.76938547
4592.00   0.80455636
4594.00   0.73130620
4596.00   0.76384808
4598.00   0.78193954
4600.00   0.80423370
4602.00   0.77221332
4604.00   0.78121212
4606.00   0.84571599
4608.00   0.86943699
4610.00   0.86347658
4612.00   0.86290483
4614.00   0.90329673
4616.00   0.86419629
4618.00   0.82164446
4620.00   0.84335523
4622.00   0.84918906
4624.00   0.86806123
4626.00   0.87684527
4628.00   0.88930865
4630.00   0.87144679
4632.00   0.92631503
4634.00   0.95102958
4636.00   0.94820963
4638.00   0.94675883
4640.00   0.97497345
4642.00   1.01279116
4644.00   0.91580156
4646.00   0.96510737
4648.00   0.97264824
4650.00   0.94941979
4652.00   0.97385296
4654.00   0.98099511
4656.00   0.99434638
4658.00   1.01666673
4660.00   0.94546852
4662.00   1.04139741
4664.00   0.98108405
4666.00   0.95505991
4668.00   1.02186560
4670.00   0.96821503
4672.00   1.02945644
4674.00   1.00692269
4676.00   1.03509551
4678.00   1.05898836
4680.00   0.98117065
4682.00   1.03941614
4684.00   1.01212348
4686.00   1.04976922
4688.00   1.02219825
4690.00   1.09187672
4692.00   1.09462931
4694.00   1.15677753
4696.00   1.10403972
4698.00   1.11367581
4700.00   1.10527017
4702.00   1.15446493
4704.00   1.15398949
4706.00   1.13684308
4708.00   1.08437580
4710.00   1.10804553
4712.00   1.11442565
4714.00   1.11782330
4716.00   1.18391259
4718.00   1.16139047
4720.00   1.13160548
4722.00   1.14398254
4724.00   1.11846147
4726.00   1.20919243
4728.00   1.16046449
4730.00   1.16974157
4732.00   1.13704478
4734.00   1.22858035
4736.00   1.23073996
4738.00   1.20019839
4740.00   1.22100026
4742.00   1.24060684
4744.00   1.23264225
4746.00   1.20286578
4748.00   1.18699560
4750.00   1.16580657
4752.00   1.22363779
4754.00   1.22457876
4756.00   1.26379709
4758.00   1.18569817
4760.00   1.12572546
4762.00   1.22524329
4764.00   1.21104370
4766.00   1.15106093
4768.00   1.17462525
4770.00   1.17308163
4772.00   1.22183052
4774.00   1.22369457
4776.00   1.13831218
4778.00   1.23627717
4780.00   1.21150828
4782.00   1.17593940
4784.00   1.25778004
4786.00   1.16321880
4788.00   1.13650697
4790.00   1.20924262
4792.00   1.19318851
4794.00   1.22119302
4796.00   1.19166242
4798.00   1.24010888
4800.00   1.19299827
4802.00   1.20761501
4804.00   1.23571485
4806.00   1.18974785
4808.00   1.21712515
4810.00   1.27310797
4812.00   1.18134479
4814.00   1.23887891
4816.00   1.25541719
4818.00   1.23300357
4820.00   1.21082688
4822.00   1.17315115
4824.00   1.18771957
4826.00   1.18440738
4828.00   1.16451469
4830.00   1.17258733
4832.00   1.09187553
4834.00   1.16142634
4836.00   1.13613018
4838.00   1.07940143
4840.00   1.15896669
4842.00   1.10564242
4844.00   1.09980688
4846.00   1.07958490
4848.00   1.05983029
4850.00   1.06321309
4852.00   1.05196619
4854.00   0.99409321
4856.00   1.00885459
4858.00   0.99074710
4860.00   1.03609239
4862.00   0.96435609
4864.00   1.00715928
4866.00   0.97741571
4868.00   1.04369269
4870.00   0.98589457
4872.00   0.94866628
4874.00   0.97780074
4876.00   1.03125061
4878.00   1.04109891
4880.00   0.98865436
4882.00   0.95571757
4884.00   0.99297768
4886.00   0.99065959
4888.00   1.07231808
4890.00   0.99342267
4892.00   1.02749964
4894.00   1.00084404
4896.00   1.00063365
4898.00   0.96753025
4900.00   0.98634606
4902.00   0.96388303
4904.00   1.00527802
4906.00   0.97576296
4908.00   0.99257571
4910.00   1.02931749
4912.00   0.95420887
4914.00   0.95817931
4916.00   0.94653586
4918.00   0.95639387
4920.00   0.97680729
4922.00   0.97493626
4924.00   0.94490169
4926.00   0.91485232
4928.00   0.95058313
4930.00   0.86421354
4932.00   0.87329125
4934.00   0.82986603
4936.00   0.82670539
4938.00   0.86813652
4940.00   0.80874858
4942.00   0.82358278
4944.00   0.82148885
4946.00   0.83307392
4948.00   0.84787200
4950.00   0.81147377
4952.00   0.82593163
4954.00   0.78381983
4956.00   0.76852622
4958.00   0.81665521
4960.00   0.82314648
4962.00   0.78762883
4964.00   0.80102546
4966.00   0.82913902
4968.00   0.75764256
4970.00   0.74499061
4972.00   0.78500834
4974.00   0.79895462
4976.00   0.81048210
4978.00   0.81751687
4980.00   0.80446644
4982.00   0.80541666
4984.00   0.90391614
4986.00   0.81765991
4988.00   0.78838591
4990.00   0.86255154
4992.00   0.86637964
4994.00   0.91692198
4996.00   0.92921349
4998.00   0.89463750
5000.00   0.91404884
5002.00   0.89343997
5004.00   0.88704927
5006.00   0.86951867
5008.00   0.89530147
5010.00   0.87978923
5012.00   0.82821095
5014.00   0.77973191
5016.00   0.90065885
5018.00   0.83236640
5020.00   0.86023010
5022.00   0.84962319
5024.00   0.85853835
5026.00   0.82668601
5028.00   0.82215049
5030.00   0.81696925
5032.00   0.80104428
5034.00   0.79475153
5036.00   0.75254489
5038.00   0.70989654
5040.00   0.76732440
5042.00   0.76625657
5044.00   0.78948893
5046.00   0.75870194
5048.00   0.71843265
5050.00   0.76059120
5052.00   0.75708241
5054.00   0.71921923
5056.00   0.74840027
5058.00   0.70078230
5060.00   0.68225985
5062.00   0.68218589
5064.00   0.65383833
5066.00   0.71381384
5068.00   0.75932834
5070.00   0.80370940
5072.00   0.81544686
5074.00   0.74184006
5076.00   0.72891262
5078.00   0.69163024
5080.00   0.65721108
5082.00   0.74091411
5084.00   0.71921116
5086.00   0.72867977
5088.00   0.84553409
5090.00   0.81447119
5092.00   0.77889396
5094.00   0.77425756
5096.00   0.72028845
5098.00   0.74536943
5100.00   0.79445206
5102.00   0.79701465
5104.00   0.83297157
5106.00   0.83156019
5108.00   0.83611953
5110.00   0.88795011
5112.00   0.90457897
5114.00   0.86323276
5116.00   0.87269858
5118.00   0.92628667
5120.00   0.91300486
5122.00   0.88243172
5124.00   0.87752859
5126.00   0.90050111
5128.00   0.93072243
5130.00   0.96083619
5132.00   0.94944563
5134.00   0.95237918
5136.00   0.91014960
5138.00   0.94100085
5140.00   0.93251248
5142.00   0.87614602
5144.00   0.89125033
5146.00   0.90967332
5148.00   0.92621048
5150.00   0.93595615
5152.00   0.87336326
5154.00   0.90084371
5156.00   0.91022629
5158.00   0.92537082
5160.00   0.91163424
5162.00   0.89774073
5164.00   0.85575688
5166.00   0.89867265
5168.00   0.85981996
5170.00   0.89599111
5172.00   0.90363821
5174.00   0.86156284
5176.00   0.81978383
5178.00   0.83145002
5180.00   0.81183746
5182.00   0.76806590
5184.00   0.75671955
5186.00   0.81921267
5188.00   0.76731326
5190.00   0.77166032
5192.00   0.81317599
5194.00   0.85759837
5196.00   0.75083310
5198.00   0.78307225
5200.00   0.74187830
5202.00   0.85893899
5204.00   0.77762922
5206.00   0.73998523
5208.00   0.77638012
5210.00   0.80519513
5212.00   0.73945759
5214.00   0.72797805
5216.00   0.77459695
5218.00   0.88318317
5220.00   0.81319506
5222.00   0.80549974
5224.00   0.86470420
5226.00   0.82871017
5228.00   0.81638664
5230.00   0.76944599
5232.00   0.73883035
5234.00   0.79129446
5236.00   0.78308716
5238.00   0.82208023
5240.00   0.85862331
5242.00   0.83234049
5244.00   0.81774274
5246.00   0.82996971
5248.00   0.80706385
5250.00   0.82489749
5252.00   0.84280283
5254.00   0.82282274
5256.00   0.78324776
5258.00   0.79792279
5260.00   0.82065205
5262.00   0.82751921
5264.00   0.78363433
5266.00   0.81091242
5268.00   0.85483795
5270.00   0.85092785
5272.00   0.80960123
5274.00   0.86617382
5276.00   0.82750060
5278.00   0.86315884
5280.00   0.81086053
5282.00   0.88968956
5284.00   0.83546306
5286.00   0.81170274
5288.00   0.81068848
5290.00   0.84667965
5292.00   0.86641813
5294.00   0.84156532
5296.00   0.85134399
5298.00   0.83907955
5300.00   0.80413002
5302.00   0.81102808
5304.00   0.87954039
5306.00   0.88004694
5308.00   0.89868145
5310.00   0.85599231
5312.00   0.86379767
5314.00   0.91245001
