# File created by shivutils (I.Shivvers)
# Blotched regions marked with a #.
# wl(A)   flm    er(optional)
3426.00   1.00747895
3428.00   1.13677311
3430.00   1.15766251
3432.00   0.76410115
3434.00   0.56564415
3436.00   1.03441668
3438.00   0.59756696
3440.00   0.72086555
3442.00   0.95000911
3444.00   1.25077295
3446.00   0.88741291
3448.00   0.81175137
3450.00   1.34387922
3452.00   1.40576565
3454.00   1.18544781
3456.00   1.12309277
3458.00   1.44097400
3460.00   1.78128064
3462.00   1.35412788
3464.00   1.42630434
3466.00   1.39396131
3468.00   1.36464310
3470.00   1.14858425
3472.00   1.14403260
3474.00   1.19769633
3476.00   1.41546202
3478.00   1.12370408
3480.00   1.34436941
3482.00   1.22005355
3484.00   1.29034090
3486.00   1.30463552
3488.00   1.32405603
3490.00   1.13447249
3492.00   1.16585433
3494.00   1.26507127
3496.00   1.17979193
3498.00   1.38278270
3500.00   1.05376959
3502.00   0.87874740
3504.00   1.47394156
3506.00   0.92183888
3508.00   0.82046908
3510.00   1.08220637
3512.00   1.05341375
3514.00   1.36577153
3516.00   1.01822293
3518.00   1.42015314
3520.00   1.24014878
3522.00   1.15880990
3524.00   1.22129488
3526.00   1.35466075
3528.00   1.23761201
3530.00   0.96942449
3532.00   1.23050427
3534.00   1.47423255
3536.00   1.19805241
3538.00   1.17215478
3540.00   1.15359104
3542.00   1.16704702
3544.00   1.18540156
3546.00   1.19214904
3548.00   1.12976360
3550.00   1.40651703
3552.00   1.22902727
3554.00   1.06599736
3556.00   1.22895229
3558.00   1.45694757
3560.00   1.45452201
3562.00   1.38348889
3564.00   1.33975470
3566.00   1.45026016
3568.00   1.44846404
3570.00   1.00324512
3572.00   1.32428002
3574.00   1.46623099
3576.00   1.24884045
3578.00   1.43820882
3580.00   1.14544857
3582.00   1.52423644
3584.00   1.40488207
3586.00   1.28228295
3588.00   1.45044851
3590.00   1.32205343
3592.00   1.27893162
3594.00   1.37113774
3596.00   1.08317399
3598.00   1.26034307
3600.00   1.43031943
3602.00   1.54868877
3604.00   1.36266804
3606.00   1.19189310
3608.00   1.36789632
3610.00   1.18815410
3612.00   1.15798378
3614.00   1.01889241
3616.00   1.24756348
3618.00   1.33547354
3620.00   1.36117375
3622.00   1.23044479
3624.00   1.17591548
3626.00   1.35925102
3628.00   1.23963046
3630.00   1.31475234
3632.00   1.35480750
3634.00   1.36934507
3636.00   1.17516696
3638.00   1.07368910
3640.00   1.27672338
3642.00   1.34592152
3644.00   1.25583291
3646.00   1.23691404
3648.00   1.37277710
3650.00   1.41228616
3652.00   1.32025528
3654.00   1.30979633
3656.00   1.24826598
3658.00   1.16051912
3660.00   1.31934905
3662.00   1.41561687
3664.00   1.46004796
3666.00   1.40391195
3668.00   1.33197284
3670.00   1.51829398
3672.00   1.44081748
3674.00   1.34055889
3676.00   1.30969131
3678.00   1.39506638
3680.00   1.27820158
3682.00   1.46765697
3684.00   1.51021278
3686.00   1.50578952
3688.00   1.26455176
3690.00   1.53102076
3692.00   1.54361248
3694.00   1.43410504
3696.00   1.44822848
3698.00   1.54118299
3700.00   1.61552167
3702.00   1.66825867
3704.00   1.48543417
3706.00   1.53679121
3708.00   1.74198818
3710.00   1.55905318
3712.00   1.58560765
3714.00   1.61794937
3716.00   1.78110862
3718.00   1.72551191
3720.00   1.75526118
3722.00   1.58272827
3724.00   1.48980510
3726.00   1.31360650
3728.00   1.53741145
3730.00   1.43552089
3732.00   1.34601307
3734.00   1.35568714
3736.00   1.31830978
3738.00   1.41562951
3740.00   1.14538980
3742.00   1.25052774
3744.00   1.05506182
3746.00   1.07029235
3748.00   0.97013688
3750.00   0.95753944
3752.00   1.04162836
3754.00   0.87003732
3756.00   0.87049389
3758.00   0.77524835
3760.00   0.63337523
3762.00   0.69281381
3764.00   0.63020790
3766.00   0.70540887
3768.00   0.65777421
3770.00   0.55491984
3772.00   0.54995704
3774.00   0.48133194
3776.00   0.56449461
3778.00   0.43611044
3780.00   0.30170640
3782.00   0.39179003
3784.00   0.43314439
3786.00   0.39543897
3788.00   0.50462240
3790.00   0.46726972
3792.00   0.40488058
3794.00   0.48087925
3796.00   0.47075906
3798.00   0.50868201
3800.00   0.51510781
3802.00   0.42741010
3804.00   0.49209127
3806.00   0.46040639
3808.00   0.49407277
3810.00   0.51572084
3812.00   0.52422345
3814.00   0.49631435
3816.00   0.36798444
3818.00   0.59331757
3820.00   0.50300813
3822.00   0.40991250
3824.00   0.41280654
3826.00   0.44093084
3828.00   0.45054013
3830.00   0.54925162
3832.00   0.55559915
3834.00   0.49058723
3836.00   0.58968115
3838.00   0.53264856
3840.00   0.53165567
3842.00   0.57008725
3844.00   0.61345786
3846.00   0.63382059
3848.00   0.65725899
3850.00   0.66909003
3852.00   0.70804566
3854.00   0.72615516
3856.00   0.75887740
3858.00   0.82627583
3860.00   0.73369926
3862.00   0.76851285
3864.00   0.86271197
3866.00   0.91899782
3868.00   1.01714849
3870.00   1.04381466
3872.00   1.03473711
3874.00   1.05925679
3876.00   1.11442840
3878.00   1.12384009
3880.00   1.13334024
3882.00   1.22246575
3884.00   1.19658518
3886.00   1.22644627
3888.00   1.29065406
3890.00   1.25295711
3892.00   1.36598110
3894.00   1.48278189
3896.00   1.42042351
3898.00   1.45856035
3900.00   1.63701737
3902.00   1.73056424
3904.00   1.64060664
3906.00   1.68357706
3908.00   1.73071861
3910.00   1.88065541
3912.00   1.92164040
3914.00   1.90243638
3916.00   2.05882502
3918.00   2.09628677
3920.00   1.97470164
3922.00   2.13189459
3924.00   2.07628107
3926.00   2.07382226
3928.00   2.19722509
3930.00   2.21837020
3932.00   2.31874108
3934.00   2.17649674
3936.00   2.27907705
3938.00   2.35303569
3940.00   2.22349119
3942.00   2.31552315
3944.00   2.34322691
3946.00   2.25423026
3948.00   2.34342909
3950.00   2.29128194
3952.00   2.39333391
3954.00   2.26917791
3956.00   2.29514098
3958.00   2.30981946
3960.00   2.35960650
3962.00   2.44797182
3964.00   2.43286276
3966.00   2.24908280
3968.00   2.10012627
3970.00   2.32634449
3972.00   2.41158319
3974.00   2.32799959
3976.00   2.45723319
3978.00   2.50551057
3980.00   2.45400310
3982.00   2.50065899
3984.00   2.57240248
3986.00   2.51396513
3988.00   2.55108142
3990.00   2.33775997
3992.00   2.58035731
3994.00   2.50984597
3996.00   2.57461333
3998.00   2.46671987
4000.00   2.50155163
4002.00   2.35192704
4004.00   2.32655168
4006.00   2.47351575
4008.00   2.38444614
4010.00   2.44108534
4012.00   2.46964359
4014.00   2.38007617
4016.00   2.38018823
4018.00   2.45496106
4020.00   2.42405152
4022.00   2.43350101
4024.00   2.33089232
4026.00   2.23369122
4028.00   2.28851151
4030.00   2.26851463
4032.00   2.31084681
4034.00   2.09975624
4036.00   2.12490129
4038.00   2.06534386
4040.00   2.14658213
4042.00   1.99493229
4044.00   2.15187860
4046.00   2.16388535
4048.00   2.07803655
4050.00   1.92589164
4052.00   2.01068902
4054.00   1.84648144
4056.00   1.90048754
4058.00   1.82638419
4060.00   1.91601729
4062.00   1.83850205
4064.00   1.74907064
4066.00   1.82732642
4068.00   1.83454573
4070.00   1.74735677
4072.00   1.76991272
4074.00   1.70191991
4076.00   1.69149387
4078.00   1.68066299
4080.00   1.63804924
4082.00   1.65510523
4084.00   1.68752420
4086.00   1.56299770
4088.00   1.58758807
4090.00   1.58689249
4092.00   1.66046357
4094.00   1.68474793
4096.00   1.66724634
4098.00   1.63382626
4100.00   1.63105798
4102.00   1.55910325
4104.00   1.51226056
4106.00   1.57144177
4108.00   1.70253170
4110.00   1.57260013
4112.00   1.58452880
4114.00   1.57981241
4116.00   1.55171895
4118.00   1.47457612
4120.00   1.49646950
4122.00   1.47785497
4124.00   1.45055568
4126.00   1.50447571
4128.00   1.36361432
4130.00   1.46114230
4132.00   1.36258900
4134.00   1.34398544
4136.00   1.32598805
4138.00   1.49179995
4140.00   1.41876125
4142.00   1.36261368
4144.00   1.49198711
4146.00   1.56320632
4148.00   1.45586812
4150.00   1.49174321
4152.00   1.49995184
4154.00   1.53138602
4156.00   1.63163412
4158.00   1.57628560
4160.00   1.60115874
4162.00   1.79619753
4164.00   1.69841158
4166.00   1.62386608
4168.00   1.71411550
4170.00   1.65405571
4172.00   1.70717037
4174.00   1.69368994
4176.00   1.69160092
4178.00   1.68318677
4180.00   1.70738161
4182.00   1.61634636
4184.00   1.65346861
4186.00   1.68449140
4188.00   1.74886656
4190.00   1.63546824
4192.00   1.75245178
4194.00   1.69230700
4196.00   1.67322731
4198.00   1.76973176
4200.00   1.68012118
4202.00   1.64714754
4204.00   1.63188481
4206.00   1.62996876
4208.00   1.78124273
4210.00   1.67510557
4212.00   1.53995430
4214.00   1.72591138
4216.00   1.72039890
4218.00   1.70674324
4220.00   1.77055907
4222.00   1.69289470
4224.00   1.72348094
4226.00   1.58815813
4228.00   1.61921453
4230.00   1.69875479
4232.00   1.71357358
4234.00   1.62236977
4236.00   1.67952013
4238.00   1.70829701
4240.00   1.73502433
4242.00   1.72973657
4244.00   1.66019857
4246.00   1.67516375
4248.00   1.83630514
4250.00   1.74835777
4252.00   1.71989048
4254.00   1.75279832
4256.00   1.68843877
4258.00   1.74400342
4260.00   1.81119668
4262.00   1.73629534
4264.00   1.72857749
4266.00   1.81970298
4268.00   1.68843281
4270.00   1.74684441
4272.00   1.77379656
4274.00   1.81515789
4276.00   1.77109182
4278.00   1.77849710
4280.00   1.72533453
4282.00   1.74785495
4284.00   1.81465089
4286.00   1.78346896
4288.00   1.73618388
4290.00   1.85250580
4292.00   1.82391620
4294.00   1.90382719
4296.00   1.91687202
4298.00   1.86523390
4300.00   1.81263041
4302.00   1.80317235
4304.00   1.89992678
4306.00   1.90767086
4308.00   1.85341513
4310.00   1.77127182
4312.00   1.85176587
4314.00   1.86102831
4316.00   1.84807098
4318.00   1.94416249
4320.00   1.93938339
4322.00   1.87253213
4324.00   1.85200262
4326.00   1.81220281
4328.00   1.93559301
4330.00   1.93055522
4332.00   1.88547599
4334.00   1.89836991
4336.00   1.90366936
4338.00   1.87459564
4340.00   1.81413436
4342.00   1.83953321
4344.00   1.81912720
4346.00   1.82219791
4348.00   1.80722773
4350.00   1.77294886
4352.00   1.79003155
4354.00   1.77690268
4356.00   1.65302563
4358.00   1.81675828
4360.00   1.68764734
4362.00   1.63081241
4364.00   1.63370490
4366.00   1.63269532
4368.00   1.69235241
4370.00   1.63164043
4372.00   1.59205711
4374.00   1.47461140
4376.00   1.47662151
4378.00   1.45100081
4380.00   1.40575492
4382.00   1.37778974
4384.00   1.31876123
4386.00   1.32827234
4388.00   1.24078882
4390.00   1.30532551
4392.00   1.28294778
4394.00   1.25383806
4396.00   1.24065292
4398.00   1.28295875
4400.00   1.23955297
4402.00   1.16533756
4404.00   1.17067873
4406.00   1.22456789
4408.00   1.17887771
4410.00   1.20844233
4412.00   1.17626762
4414.00   1.08790791
4416.00   1.20658052
4418.00   1.25822008
4420.00   1.26107526
4422.00   1.11927474
4424.00   1.15327525
4426.00   1.25005984
4428.00   1.19732845
4430.00   1.17281342
4432.00   1.22383213
4434.00   1.21031010
4436.00   1.17228568
4438.00   1.21269202
4440.00   1.23239219
4442.00   1.19902515
4444.00   1.17302871
4446.00   1.17618799
4448.00   1.28500795
4450.00   1.32640254
4452.00   1.25232267
4454.00   1.33743036
4456.00   1.31454039
4458.00   1.34736037
4460.00   1.38389635
4462.00   1.28406417
4464.00   1.28451610
4466.00   1.36035430
4468.00   1.38962376
4470.00   1.41905892
4472.00   1.35802984
4474.00   1.37172616
4476.00   1.36800575
4478.00   1.34886444
4480.00   1.50684309
4482.00   1.53740990
4484.00   1.53176737
4486.00   1.57235563
4488.00   1.58793128
4490.00   1.62853706
4492.00   1.59046543
4494.00   1.64358604
4496.00   1.65532768
4498.00   1.71026504
4500.00   1.70925224
4502.00   1.77622008
4504.00   1.76573431
4506.00   1.85139966
4508.00   1.83542705
4510.00   1.87130213
4512.00   1.93435526
4514.00   1.94939375
4516.00   2.05953717
4518.00   1.98735821
4520.00   2.02822781
4522.00   2.14714479
4524.00   2.19166565
4526.00   2.14687252
4528.00   2.12144923
4530.00   2.13169789
4532.00   2.11975026
4534.00   2.29348588
4536.00   2.09392476
4538.00   2.24897242
4540.00   2.27564478
4542.00   2.33336782
4544.00   2.32566047
4546.00   2.34124327
4548.00   2.34613085
4550.00   2.36582923
4552.00   2.39317179
4554.00   2.40291357
4556.00   2.42696738
4558.00   2.51986361
4560.00   2.46772146
4562.00   2.61145067
4564.00   2.51628327
4566.00   2.55284619
4568.00   2.62097836
4570.00   2.70737886
4572.00   2.65525508
4574.00   2.65159822
4576.00   2.63131452
4578.00   2.68415785
4580.00   2.73191762
4582.00   2.74662614
4584.00   2.66999269
4586.00   2.62886858
4588.00   2.69811726
4590.00   2.76718783
4592.00   2.75244713
4594.00   2.75505161
4596.00   2.75288129
4598.00   2.75095558
4600.00   2.70958209
4602.00   2.78673816
4604.00   2.69511175
4606.00   2.64460111
4608.00   2.67269754
4610.00   2.73773909
4612.00   2.74620819
4614.00   2.67144084
4616.00   2.67739677
4618.00   2.67962861
4620.00   2.62282825
4622.00   2.53326201
4624.00   2.55498624
4626.00   2.66058064
4628.00   2.68536210
4630.00   2.64444995
4632.00   2.59562349
4634.00   2.66423655
4636.00   2.50912094
4638.00   2.59933925
4640.00   2.63938284
4642.00   2.61180115
4644.00   2.66744900
4646.00   2.62003183
4648.00   2.53304362
4650.00   2.56744909
4652.00   2.58379102
4654.00   2.64373994
4656.00   2.57723331
4658.00   2.53821468
4660.00   2.44550419
4662.00   2.59290481
4664.00   2.56085300
4666.00   2.47115135
4668.00   2.47717595
4670.00   2.59597278
4672.00   2.51002240
4674.00   2.43425322
4676.00   2.57633805
4678.00   2.47762251
4680.00   2.49329853
4682.00   2.49898744
4684.00   2.54733324
4686.00   2.49663234
4688.00   2.41855860
4690.00   2.42041445
4692.00   2.34805989
4694.00   2.40444040
4696.00   2.41351461
4698.00   2.41397023
4700.00   2.33378649
4702.00   2.31256628
4704.00   2.31601548
4706.00   2.28391671
4708.00   2.28846312
4710.00   2.34293628
4712.00   2.27829719
4714.00   2.20957518
4716.00   2.22876072
4718.00   2.19272017
4720.00   2.19706726
4722.00   2.10556316
4724.00   2.11039162
4726.00   2.11146688
4728.00   2.08015513
4730.00   2.02484155
4732.00   1.98030186
4734.00   1.95747972
4736.00   2.00451350
4738.00   1.93561089
4740.00   1.91323113
4742.00   1.84799528
4744.00   1.83368075
4746.00   1.88769364
4748.00   1.79551470
4750.00   1.81441987
4752.00   1.76797938
4754.00   1.73337841
4756.00   1.63155651
4758.00   1.64551985
4760.00   1.56559741
4762.00   1.59988952
4764.00   1.51358843
4766.00   1.47334230
4768.00   1.45837367
4770.00   1.40148187
4772.00   1.40191150
4774.00   1.36471975
4776.00   1.33134305
4778.00   1.32233167
4780.00   1.26787066
4782.00   1.25473750
4784.00   1.24693739
4786.00   1.24737787
4788.00   1.23292792
4790.00   1.18770421
4792.00   1.29730487
4794.00   1.21811128
4796.00   1.16622818
4798.00   1.18118131
4800.00   1.18415952
4802.00   1.20376492
4804.00   1.13694525
4806.00   1.19314790
4808.00   1.14964235
4810.00   1.16413593
4812.00   1.20267904
4814.00   1.22208512
4816.00   1.19852257
4818.00   1.24630749
4820.00   1.21410608
4822.00   1.27276075
4824.00   1.28349543
4826.00   1.27089834
4828.00   1.25565839
4830.00   1.25749075
4832.00   1.21026134
4834.00   1.22695899
4836.00   1.25925708
4838.00   1.25346506
4840.00   1.33538926
4842.00   1.25105667
4844.00   1.33501673
4846.00   1.35500729
4848.00   1.31749749
4850.00   1.30608189
4852.00   1.29011369
4854.00   1.30248785
4856.00   1.23731196
4858.00   1.30097508
4860.00   1.25468922
4862.00   1.21721578
4864.00   1.24609649
4866.00   1.20595527
4868.00   1.16068649
4870.00   1.20527613
4872.00   1.18502474
4874.00   1.21138608
4876.00   1.27992225
4878.00   1.25125027
4880.00   1.21066022
4882.00   1.20339346
4884.00   1.19596756
4886.00   1.25327826
4888.00   1.24297976
4890.00   1.26112175
4892.00   1.31608760
4894.00   1.28094673
4896.00   1.30231297
4898.00   1.34578228
4900.00   1.27474785
4902.00   1.39534390
4904.00   1.38051343
4906.00   1.37641168
4908.00   1.39748871
4910.00   1.40501869
4912.00   1.39734089
4914.00   1.51071739
4916.00   1.51464295
4918.00   1.46678996
4920.00   1.57578766
4922.00   1.55169642
4924.00   1.59646320
4926.00   1.66837883
4928.00   1.64748836
4930.00   1.64017844
4932.00   1.68080628
4934.00   1.84945500
4936.00   1.82124758
4938.00   1.90515161
4940.00   1.93204021
4942.00   1.97527015
4944.00   1.91627455
4946.00   2.00298333
4948.00   1.94479132
4950.00   2.10607195
4952.00   2.08204508
4954.00   2.13146019
4956.00   2.13534546
4958.00   2.12325263
4960.00   2.14221978
4962.00   2.14954138
4964.00   2.16883779
4966.00   2.16067195
4968.00   2.14947605
4970.00   2.16523433
4972.00   2.08179116
4974.00   2.14957333
4976.00   2.04037642
4978.00   2.02849007
4980.00   1.99298692
4982.00   2.03736663
4984.00   1.99939322
4986.00   1.99133539
4988.00   1.94405675
4990.00   1.92734981
4992.00   1.84805143
4994.00   1.82333279
4996.00   1.82199812
4998.00   1.79570293
5000.00   1.69617665
5002.00   1.66586590
5004.00   1.64038968
5006.00   1.57072139
5008.00   1.56050992
5010.00   1.56658423
5012.00   1.55003917
5014.00   1.51722896
5016.00   1.43185425
5018.00   1.51186609
5020.00   1.45363939
5022.00   1.44811976
5024.00   1.36337650
5026.00   1.38123882
5028.00   1.32239854
5030.00   1.36049879
5032.00   1.34267080
5034.00   1.31155515
5036.00   1.36166692
5038.00   1.36320257
5040.00   1.32527173
5042.00   1.27984715
5044.00   1.32387793
5046.00   1.33740783
5048.00   1.31013978
5050.00   1.30722106
5052.00   1.32413232
5054.00   1.36830986
5056.00   1.41148400
5058.00   1.34594226
5060.00   1.38952434
5062.00   1.36396396
5064.00   1.42368567
5066.00   1.42946732
5068.00   1.36209667
5070.00   1.48083222
5072.00   1.48190212
5074.00   1.50170338
5076.00   1.44877803
5078.00   1.46283853
5080.00   1.50003040
5082.00   1.55553353
5084.00   1.60576010
5086.00   1.57592344
5088.00   1.62731910
5090.00   1.71975482
5092.00   1.69126427
5094.00   1.66949451
5096.00   1.64804173
5098.00   1.71624148
5100.00   1.74980581
5102.00   1.80366325
5104.00   1.74278152
5106.00   1.79684043
5108.00   1.81200087
5110.00   1.81547678
5112.00   1.94998789
5114.00   1.88953865
5116.00   1.86284196
5118.00   1.83631730
5120.00   1.79208696
5122.00   1.90342736
5124.00   1.94978595
5126.00   1.92844522
5128.00   1.91830063
5130.00   1.96910608
5132.00   1.94734514
5134.00   1.96998787
5136.00   1.98718739
5138.00   1.89677536
5140.00   1.96916747
5142.00   1.93788230
5144.00   1.98295665
5146.00   1.91792464
5148.00   1.98731518
5150.00   1.95950532
5152.00   2.00851631
5154.00   1.95484281
5156.00   1.95812428
5158.00   1.94516361
5160.00   1.93332040
5162.00   1.92124891
5164.00   1.98115957
5166.00   1.96603215
5168.00   1.99279571
5170.00   1.95520592
5172.00   1.95558214
5174.00   1.93418193
5176.00   1.98005080
5178.00   2.02430415
5180.00   2.09411454
5182.00   2.04337621
5184.00   2.04701972
5186.00   2.05327654
5188.00   2.05531836
5190.00   2.04102015
5192.00   2.05601931
5194.00   2.12554240
5196.00   2.12623239
5198.00   2.08968377
5200.00   2.06771469
5202.00   2.16259718
5204.00   2.17196250
5206.00   2.20987034
5208.00   2.20648313
5210.00   2.26511192
5212.00   2.28516960
5214.00   2.25693011
5216.00   2.25314784
5218.00   2.36579394
5220.00   2.35187268
5222.00   2.32395124
5224.00   2.46730208
5226.00   2.41141129
5228.00   2.39970636
5230.00   2.45911551
5232.00   2.51743078
5234.00   2.50115156
5236.00   2.49559593
5238.00   2.54496741
5240.00   2.55244708
5242.00   2.65624285
5244.00   2.58890390
5246.00   2.59709930
5248.00   2.61850786
5250.00   2.55067825
5252.00   2.66190481
5254.00   2.70809293
5256.00   2.66530991
5258.00   2.73253703
5260.00   2.70777130
5262.00   2.64308023
5264.00   2.79757619
5266.00   2.76407886
5268.00   2.74503517
5270.00   2.65647554
5272.00   2.78131890
5274.00   2.83107209
5276.00   2.79085970
5278.00   2.79744911
5280.00   2.80143476
5282.00   2.89594555
5284.00   2.82869768
5286.00   2.77651095
5288.00   2.84856987
5290.00   2.89322615
5292.00   2.85899115
5294.00   2.86916423
5296.00   2.88685369
5298.00   2.99281049
5300.00   2.93639636
5302.00   2.93467426
5304.00   2.94763279
5306.00   2.96074867
5308.00   2.94185829
5310.00   2.98214936
5312.00   2.94670439
5314.00   3.00379229
5316.00   2.90249372
5318.00   2.92477584
