# File created by shivutils (I.Shivvers)
# Blotched regions marked with a #.
# wl(A)   flm    er(optional)
3440.00   0.30503830
3442.00   0.24524251
3444.00   0.09394769
3446.00   0.09230788
3448.00   0.19448355
3450.00   0.16678764
3452.00   0.17586495
3454.00   0.17966655
3456.00   0.20381111
3458.00   0.03286820
3460.00   0.17617327
3462.00   0.16755795
3464.00   0.15836373
3466.00   0.15568045
3468.00   0.11080840
3470.00   0.11076958
3472.00   0.21409045
3474.00   0.20525230
3476.00   0.22525454
3478.00   0.14579096
3480.00   0.23700552
3482.00   0.22104815
3484.00   0.22268045
3486.00   0.18807030
3488.00   0.16420580
3490.00   0.19977064
3492.00   0.28818268
3494.00   0.23888656
3496.00   0.24304712
3498.00   0.23891096
3500.00   0.25805834
3502.00   0.20255162
3504.00   0.17260005
3506.00   0.21568854
3508.00   0.21118547
3510.00   0.25267676
3512.00   0.18304884
3514.00   0.22450362
3516.00   0.22140726
3518.00   0.20049806
3520.00   0.15452497
3522.00   0.19103999
3524.00   0.15544830
3526.00   0.21497248
3528.00   0.19472902
3530.00   0.25641927
3532.00   0.16120647
3534.00   0.17705821
3536.00   0.20492868
3538.00   0.19314753
3540.00   0.21314935
3542.00   0.26129067
3544.00   0.17579527
3546.00   0.20862319
3548.00   0.15216126
3550.00   0.20646681
3552.00   0.14519441
3554.00   0.18111935
3556.00   0.15689141
3558.00   0.19698344
3560.00   0.21292995
3562.00   0.17546876
3564.00   0.17675242
3566.00   0.17985862
3568.00   0.29275405
3570.00   0.25610268
3572.00   0.23778072
3574.00   0.30333498
3576.00   0.23041575
3578.00   0.16563609
3580.00   0.24287224
3582.00   0.21460332
3584.00   0.23349944
3586.00   0.23103528
3588.00   0.23280010
3590.00   0.23066060
3592.00   0.24906059
3594.00   0.25522047
3596.00   0.21733786
3598.00   0.27314869
3600.00   0.21545619
3602.00   0.25556681
3604.00   0.21344867
3606.00   0.20313063
3608.00   0.21265124
3610.00   0.28770906
3612.00   0.27978978
3614.00   0.24188836
3616.00   0.26789477
3618.00   0.23175612
3620.00   0.24517033
3622.00   0.24928655
3624.00   0.31564724
3626.00   0.29361930
3628.00   0.26107967
3630.00   0.31932056
3632.00   0.30827811
3634.00   0.29810873
3636.00   0.25338596
3638.00   0.22187521
3640.00   0.24623331
3642.00   0.25564519
3644.00   0.20775372
3646.00   0.26291201
3648.00   0.34310943
3650.00   0.24734369
3652.00   0.29091659
3654.00   0.30283606
3656.00   0.29384318
3658.00   0.28440294
3660.00   0.29695341
3662.00   0.26725426
3664.00   0.26746842
3666.00   0.26067150
3668.00   0.24406520
3670.00   0.24102552
3672.00   0.25752294
3674.00   0.23674977
3676.00   0.23740228
3678.00   0.23044288
3680.00   0.25152722
3682.00   0.22630562
3684.00   0.25619230
3686.00   0.21846327
3688.00   0.24215174
3690.00   0.27631721
3692.00   0.23123862
3694.00   0.25596529
3696.00   0.23058349
3698.00   0.24233547
3700.00   0.25949559
3702.00   0.18350320
3704.00   0.23065123
3706.00   0.26554960
3708.00   0.24571313
3710.00   0.25012258
3712.00   0.27636328
3714.00   0.23079011
3716.00   0.19845746
3718.00   0.22347064
3720.00   0.21947068
3722.00   0.21036337
3724.00   0.26440927
3726.00   0.23594123
3728.00   0.18390067
3730.00   0.25349799
3732.00   0.21884039
3734.00   0.17452493
3736.00   0.21589442
3738.00   0.22449650
3740.00   0.22307838
3742.00   0.19810221
3744.00   0.18826458
3746.00   0.18430045
3748.00   0.18101700
#3750.00   0.19141868
#3752.00   0.12816098
#3754.00   -0.01627349
#3756.00   -0.20576043
#3758.00   -0.17917100
#3760.00   0.01733718
#3762.00   0.10017670
#3764.00   0.14597125
#3766.00   0.13910227
3768.00   0.14986856
3770.00   0.17094408
3772.00   0.19072096
3774.00   0.16439769
3776.00   0.16641906
3778.00   0.18075779
3780.00   0.15170614
3782.00   0.19017452
3784.00   0.17945601
3786.00   0.17528030
3788.00   0.20125005
3790.00   0.16937254
3792.00   0.16028759
3794.00   0.19552658
3796.00   0.12863617
3798.00   0.15106158
3800.00   0.16916262
3802.00   0.17982025
3804.00   0.16412246
3806.00   0.18587193
3808.00   0.17874794
3810.00   0.18520628
3812.00   0.17062378
3814.00   0.18109667
3816.00   0.19244184
3818.00   0.18599319
3820.00   0.17481250
3822.00   0.18652649
3824.00   0.20162621
3826.00   0.18639471
3828.00   0.20746996
3830.00   0.16572149
3832.00   0.18413734
3834.00   0.24297531
3836.00   0.16550823
3838.00   0.21142985
3840.00   0.18141317
3842.00   0.20744783
3844.00   0.18869844
3846.00   0.19821082
3848.00   0.24277233
3850.00   0.25059381
3852.00   0.28318357
3854.00   0.28503960
3856.00   0.28946981
3858.00   0.30094388
3860.00   0.29492068
3862.00   0.28441063
3864.00   0.27930331
3866.00   0.29582772
3868.00   0.30122912
3870.00   0.31656253
3872.00   0.36327425
3874.00   0.31176409
3876.00   0.33534533
3878.00   0.31986630
3880.00   0.35997468
3882.00   0.38508466
3884.00   0.34256423
3886.00   0.34949297
3888.00   0.38530970
3890.00   0.30454949
3892.00   0.36160752
3894.00   0.39673373
3896.00   0.39975175
3898.00   0.38491103
3900.00   0.44168401
3902.00   0.45963681
3904.00   0.43494135
3906.00   0.44429415
3908.00   0.45206153
3910.00   0.48641413
3912.00   0.48090157
3914.00   0.48989689
3916.00   0.52385974
3918.00   0.43681747
3920.00   0.48640403
3922.00   0.52392864
3924.00   0.52043784
3926.00   0.49634972
3928.00   0.50002038
3930.00   0.53001022
3932.00   0.52399266
3934.00   0.49591848
3936.00   0.53887522
3938.00   0.55369991
3940.00   0.55150932
3942.00   0.60896498
3944.00   0.55323988
3946.00   0.59700066
3948.00   0.55776834
3950.00   0.57939309
3952.00   0.60849386
3954.00   0.60304487
3956.00   0.57335168
3958.00   0.60759771
3960.00   0.58378679
3962.00   0.60681790
3964.00   0.57595080
3966.00   0.52701145
3968.00   0.58998984
3970.00   0.62423015
3972.00   0.63157302
3974.00   0.62575591
3976.00   0.65915662
3978.00   0.61486006
3980.00   0.64539427
3982.00   0.63059711
3984.00   0.60551918
3986.00   0.67290640
3988.00   0.63457292
3990.00   0.62168103
3992.00   0.63595289
3994.00   0.63781887
3996.00   0.62986642
3998.00   0.63437182
4000.00   0.54758024
4002.00   0.53778434
4004.00   0.61831951
4006.00   0.62526298
4008.00   0.63689405
4010.00   0.59991252
4012.00   0.62259048
4014.00   0.60924864
4016.00   0.65525800
4018.00   0.63622862
4020.00   0.65168858
4022.00   0.64336514
4024.00   0.66060549
4026.00   0.59241295
4028.00   0.57547188
4030.00   0.57930231
4032.00   0.61140978
4034.00   0.61787832
4036.00   0.56159168
4038.00   0.55946654
4040.00   0.54630899
4042.00   0.57264572
4044.00   0.58360201
4046.00   0.59159070
4048.00   0.47533283
4050.00   0.49168202
4052.00   0.51001519
4054.00   0.52240801
4056.00   0.51487130
4058.00   0.48409739
4060.00   0.50224960
4062.00   0.48813927
4064.00   0.50425965
4066.00   0.48540178
4068.00   0.50124693
4070.00   0.52192706
4072.00   0.44956648
4074.00   0.44922450
4076.00   0.43864995
4078.00   0.42387155
4080.00   0.40771404
4082.00   0.41566983
4084.00   0.42549211
4086.00   0.42266873
4088.00   0.45153159
4090.00   0.38350359
4092.00   0.39116144
4094.00   0.39579785
4096.00   0.40174615
4098.00   0.40944692
4100.00   0.35609025
4102.00   0.37313467
4104.00   0.38125280
4106.00   0.37101471
4108.00   0.36467013
4110.00   0.39107630
4112.00   0.40575105
4114.00   0.39452317
4116.00   0.41291502
4118.00   0.38434935
4120.00   0.43177986
4122.00   0.42657039
4124.00   0.41229600
4126.00   0.37138027
4128.00   0.35949171
4130.00   0.37238267
4132.00   0.34739885
4134.00   0.27821645
4136.00   0.31202105
4138.00   0.34044528
4140.00   0.35412854
4142.00   0.36000124
4144.00   0.36680591
4146.00   0.34868723
4148.00   0.33947235
4150.00   0.34766209
4152.00   0.32970610
4154.00   0.33365813
4156.00   0.35818148
4158.00   0.33891857
4160.00   0.35802835
4162.00   0.34885031
4164.00   0.36114377
4166.00   0.37653613
4168.00   0.38567308
4170.00   0.36377621
4172.00   0.35990334
4174.00   0.38302851
4176.00   0.41232169
4178.00   0.37452376
4180.00   0.35804811
4182.00   0.37879834
4184.00   0.36984348
4186.00   0.36283663
4188.00   0.34006009
4190.00   0.36467078
4192.00   0.35584447
4194.00   0.36181802
4196.00   0.36483324
4198.00   0.37430862
4200.00   0.35239390
4202.00   0.37587214
4204.00   0.36120480
4206.00   0.37132144
4208.00   0.36415267
4210.00   0.38841084
4212.00   0.40758437
4214.00   0.37581658
4216.00   0.38737896
4218.00   0.38952866
4220.00   0.40092614
4222.00   0.36299214
4224.00   0.36278948
4226.00   0.36360970
4228.00   0.38528222
4230.00   0.37604788
4232.00   0.41313964
4234.00   0.39527592
4236.00   0.39855221
4238.00   0.38106126
4240.00   0.35870591
4242.00   0.37928590
4244.00   0.39595306
4246.00   0.38132787
4248.00   0.34403220
4250.00   0.36354879
4252.00   0.39538157
4254.00   0.38639691
4256.00   0.35264808
4258.00   0.34893894
4260.00   0.37130585
4262.00   0.37691304
4264.00   0.37740436
4266.00   0.31568235
4268.00   0.35040185
4270.00   0.37589249
4272.00   0.40253106
4274.00   0.34495050
4276.00   0.36525565
4278.00   0.36242175
4280.00   0.31730580
4282.00   0.35757515
4284.00   0.35460541
4286.00   0.35538346
4288.00   0.37823662
4290.00   0.37470263
4292.00   0.36021537
4294.00   0.35261929
4296.00   0.33853900
4298.00   0.37105665
4300.00   0.36426705
4302.00   0.35095289
4304.00   0.35333613
4306.00   0.34739497
4308.00   0.36099896
4310.00   0.36664942
4312.00   0.39215133
4314.00   0.33326319
4316.00   0.31401059
4318.00   0.32957885
4320.00   0.34783566
4322.00   0.36075282
4324.00   0.35427153
4326.00   0.34177983
4328.00   0.35033804
4330.00   0.33756328
4332.00   0.33700082
4334.00   0.35667235
4336.00   0.36336815
4338.00   0.39818513
4340.00   0.33728674
4342.00   0.35458392
4344.00   0.38596761
4346.00   0.36418155
4348.00   0.35448959
4350.00   0.40370151
4352.00   0.38583922
4354.00   0.40356535
4356.00   0.45313284
4358.00   0.36528331
4360.00   0.31417957
4362.00   0.39552101
4364.00   0.39351964
4366.00   0.39137036
4368.00   0.37372604
4370.00   0.38619050
4372.00   0.34105092
4374.00   0.25280431
4376.00   0.29736367
4378.00   0.38917881
4380.00   0.41167149
4382.00   0.41708934
4384.00   0.39607573
4386.00   0.42565280
4388.00   0.41326931
4390.00   0.42845467
4392.00   0.41504371
4394.00   0.38655216
4396.00   0.41878030
4398.00   0.43005195
4400.00   0.42021617
4402.00   0.41761762
4404.00   0.44144970
4406.00   0.40862384
4408.00   0.42259422
4410.00   0.42777812
4412.00   0.41444334
4414.00   0.43195155
4416.00   0.47277391
4418.00   0.44062418
4420.00   0.41526148
4422.00   0.42877334
4424.00   0.45194399
4426.00   0.43305171
4428.00   0.46231559
4430.00   0.42713404
4432.00   0.45776594
4434.00   0.46953043
4436.00   0.43773091
4438.00   0.44971716
4440.00   0.47128904
4442.00   0.48567599
4444.00   0.48972005
4446.00   0.45530802
4448.00   0.46141317
4450.00   0.47284752
4452.00   0.48950797
4454.00   0.49865586
4456.00   0.51270443
4458.00   0.48364592
4460.00   0.49444574
4462.00   0.49043494
4464.00   0.49804130
4466.00   0.50079238
4468.00   0.52937335
4470.00   0.51096141
4472.00   0.51654273
4474.00   0.54855675
4476.00   0.52315152
4478.00   0.54872441
4480.00   0.56389189
4482.00   0.54260004
4484.00   0.54761660
4486.00   0.57631761
4488.00   0.56516570
4490.00   0.58663136
4492.00   0.58372486
4494.00   0.57458609
4496.00   0.59334981
4498.00   0.58068430
4500.00   0.61610997
4502.00   0.59910548
4504.00   0.56866926
4506.00   0.60021114
4508.00   0.60697955
4510.00   0.62021393
4512.00   0.62802267
4514.00   0.61677343
4516.00   0.63378388
4518.00   0.64467728
4520.00   0.62714028
4522.00   0.65328604
4524.00   0.65676445
4526.00   0.66763729
4528.00   0.68197536
4530.00   0.71010697
4532.00   0.62864023
4534.00   0.65835243
4536.00   0.67775512
4538.00   0.71155280
4540.00   0.69425684
4542.00   0.66249287
4544.00   0.69695199
4546.00   0.71558440
4548.00   0.70303637
4550.00   0.69554359
4552.00   0.68242621
4554.00   0.71705216
4556.00   0.74726665
4558.00   0.72624838
4560.00   0.72714365
4562.00   0.69924098
4564.00   0.71694261
4566.00   0.73314834
4568.00   0.73421335
4570.00   0.74833256
4572.00   0.71504050
4574.00   0.75962943
4576.00   0.72901279
4578.00   0.73349547
4580.00   0.73825884
4582.00   0.73936850
4584.00   0.73965305
4586.00   0.73559082
4588.00   0.74525464
4590.00   0.75565982
4592.00   0.76183259
4594.00   0.73853934
4596.00   0.75179923
4598.00   0.72725779
4600.00   0.73207283
4602.00   0.75171202
4604.00   0.74845654
4606.00   0.71852922
4608.00   0.70976907
4610.00   0.72102481
4612.00   0.74027979
4614.00   0.73135704
4616.00   0.68274707
4618.00   0.70859963
4620.00   0.74918723
4622.00   0.72683728
4624.00   0.70909047
4626.00   0.73892295
4628.00   0.72137964
4630.00   0.70853055
4632.00   0.71012509
4634.00   0.69225413
4636.00   0.71407282
4638.00   0.70241874
4640.00   0.71460313
4642.00   0.68629432
4644.00   0.69207674
4646.00   0.69053996
4648.00   0.66601586
4650.00   0.67342466
4652.00   0.67016947
4654.00   0.67881477
4656.00   0.68548810
4658.00   0.68668783
4660.00   0.69495052
4662.00   0.69647586
4664.00   0.68742651
4666.00   0.70158184
4668.00   0.70295322
4670.00   0.73357832
4672.00   0.68757004
4674.00   0.66850209
4676.00   0.70145881
4678.00   0.73166436
4680.00   0.71497899
4682.00   0.69691271
4684.00   0.70914280
4686.00   0.70507205
4688.00   0.67088121
4690.00   0.68588418
4692.00   0.68063992
4694.00   0.66451842
4696.00   0.64811975
4698.00   0.66997725
4700.00   0.66728050
4702.00   0.66010618
4704.00   0.65240586
4706.00   0.67239541
4708.00   0.66549271
4710.00   0.67806453
4712.00   0.69018489
4714.00   0.66693377
4716.00   0.70861661
4718.00   0.67264801
4720.00   0.69024903
4722.00   0.70746082
4724.00   0.68611079
4726.00   0.66581511
4728.00   0.63212049
4730.00   0.66317725
4732.00   0.64623511
4734.00   0.64898860
4736.00   0.62873894
4738.00   0.60919821
4740.00   0.60188717
4742.00   0.61719143
4744.00   0.59063458
4746.00   0.55745673
4748.00   0.58926934
4750.00   0.58150232
4752.00   0.56871289
4754.00   0.61734962
4756.00   0.60767591
4758.00   0.59663033
4760.00   0.61288399
4762.00   0.56610543
4764.00   0.55731773
4766.00   0.55723298
4768.00   0.56590390
4770.00   0.56537604
4772.00   0.55021405
4774.00   0.56619537
4776.00   0.55495667
4778.00   0.55273211
4780.00   0.56492686
4782.00   0.53705841
4784.00   0.54738617
4786.00   0.54961318
4788.00   0.54308420
4790.00   0.53574020
4792.00   0.56503510
4794.00   0.54850727
4796.00   0.53480113
4798.00   0.53312486
4800.00   0.52800322
4802.00   0.51487708
4804.00   0.52852792
4806.00   0.51630509
4808.00   0.54213351
4810.00   0.54656363
4812.00   0.53404689
4814.00   0.53230250
4816.00   0.55087912
4818.00   0.54653013
4820.00   0.54990149
4822.00   0.52527273
4824.00   0.53658134
4826.00   0.55537885
4828.00   0.52674752
4830.00   0.52223498
4832.00   0.52992958
4834.00   0.54431313
4836.00   0.53548032
4838.00   0.55094814
4840.00   0.55855644
4842.00   0.54717457
4844.00   0.55145931
4846.00   0.52757257
4848.00   0.52898353
4850.00   0.55374604
4852.00   0.52578735
4854.00   0.52987164
4856.00   0.52675885
4858.00   0.53961158
4860.00   0.50564158
4862.00   0.53841519
4864.00   0.52446598
4866.00   0.52517009
4868.00   0.52749318
4870.00   0.53742689
4872.00   0.48852766
4874.00   0.49398115
4876.00   0.50905013
4878.00   0.49027649
4880.00   0.46676934
4882.00   0.46052620
4884.00   0.46634978
4886.00   0.44969061
4888.00   0.47917461
4890.00   0.43488377
#4892.00   0.47023353
#4894.00   0.45282724
#4896.00   0.44348302
#4898.00   0.32944736
#4900.00   0.18186265
#4902.00   0.29733533
#4904.00   0.44190621
#4906.00   0.46236041
4908.00   0.46963328
4910.00   0.47456199
4912.00   0.47337022
4914.00   0.48580831
4916.00   0.48049775
4918.00   0.47576123
4920.00   0.45831603
4922.00   0.47428170
4924.00   0.50783622
4926.00   0.50787359
4928.00   0.50657201
4930.00   0.48312673
4932.00   0.49235183
4934.00   0.47662047
4936.00   0.48380753
4938.00   0.51358956
4940.00   0.48714685
4942.00   0.47186804
4944.00   0.47402599
4946.00   0.50612897
4948.00   0.51052278
4950.00   0.52264017
4952.00   0.53250098
4954.00   0.54711026
4956.00   0.53279042
4958.00   0.53241163
4960.00   0.53432155
4962.00   0.53458375
4964.00   0.52585959
4966.00   0.52901131
4968.00   0.55005455
4970.00   0.51056427
4972.00   0.56018722
4974.00   0.53984076
4976.00   0.56365383
4978.00   0.52655834
4980.00   0.53053772
4982.00   0.53331149
4984.00   0.56571525
4986.00   0.54305208
4988.00   0.52753913
4990.00   0.54120785
4992.00   0.57117039
4994.00   0.55041790
4996.00   0.53660971
4998.00   0.50452125
5000.00   0.50562161
5002.00   0.53174329
5004.00   0.56202745
5006.00   0.57313567
5008.00   0.57975191
5010.00   0.55652708
5012.00   0.56151497
5014.00   0.55111313
5016.00   0.57838136
5018.00   0.55834758
5020.00   0.56075543
5022.00   0.55116057
5024.00   0.53064448
5026.00   0.52776474
5028.00   0.53713596
5030.00   0.56186920
5032.00   0.51860303
5034.00   0.52756649
5036.00   0.52176267
#5038.00   0.53039986
#5040.00   0.53437299
#5042.00   0.50406200
#5044.00   0.46715391
#5046.00   0.34020579
#5048.00   0.35106030
#5050.00   0.47152299
#5052.00   0.50263464
#5054.00   0.54446614
5056.00   0.52086556
5058.00   0.52054417
5060.00   0.52419960
5062.00   0.55263740
5064.00   0.54678106
5066.00   0.54747510
5068.00   0.54842848
5070.00   0.53566223
5072.00   0.54279858
5074.00   0.55764365
5076.00   0.56097090
5078.00   0.56529796
5080.00   0.56172329
5082.00   0.55601299
5084.00   0.58436233
5086.00   0.60765928
5088.00   0.54365957
5090.00   0.55913544
5092.00   0.56924677
5094.00   0.55900031
5096.00   0.55842716
5098.00   0.58406156
5100.00   0.60375661
5102.00   0.59799302
5104.00   0.56823415
5106.00   0.59427559
5108.00   0.60195845
5110.00   0.58691043
5112.00   0.56980866
5114.00   0.57989305
5116.00   0.60866958
5118.00   0.60376000
5120.00   0.57805055
5122.00   0.59417719
5124.00   0.58370632
5126.00   0.59807396
5128.00   0.61825061
5130.00   0.61433327
5132.00   0.61761773
5134.00   0.60634720
5136.00   0.64794630
5138.00   0.61957514
5140.00   0.61511374
5142.00   0.60330009
5144.00   0.63184935
5146.00   0.61738706
5148.00   0.61550826
5150.00   0.64114898
5152.00   0.69050777
5154.00   0.70018852
5156.00   0.64987987
5158.00   0.66371280
5160.00   0.66088456
5162.00   0.66336036
5164.00   0.68663710
5166.00   0.68375707
5168.00   0.68586868
5170.00   0.67963141
5172.00   0.67301780
5174.00   0.68285561
5176.00   0.69319957
5178.00   0.69543356
5180.00   0.67990053
5182.00   0.68564725
5184.00   0.67615342
5186.00   0.67384475
5188.00   0.66931146
5190.00   0.66667366
5192.00   0.69884223
5194.00   0.67637414
5196.00   0.70915943
5198.00   0.70017594
5200.00   0.73111212
5202.00   0.71448064
5204.00   0.70803899
5206.00   0.73594379
5208.00   0.72117054
5210.00   0.73333567
5212.00   0.71148711
5214.00   0.74344683
5216.00   0.75084996
5218.00   0.74524939
5220.00   0.77839512
5222.00   0.76307970
5224.00   0.76734751
5226.00   0.75028682
5228.00   0.79726022
5230.00   0.76850301
5232.00   0.78883100
5234.00   0.78457183
5236.00   0.78209883
5238.00   0.80867666
5240.00   0.79172474
5242.00   0.77121335
5244.00   0.80834544
5246.00   0.79084080
5248.00   0.81583905
5250.00   0.81165224
5252.00   0.83385956
5254.00   0.85232949
5256.00   0.82446134
5258.00   0.83069569
5260.00   0.83711773
5262.00   0.81922370
5264.00   0.83739787
5266.00   0.85925466
5268.00   0.87896603
5270.00   0.82914966
5272.00   0.82752520
5274.00   0.82597941
5276.00   0.86015445
5278.00   0.87345541
5280.00   0.85775822
5282.00   0.88452673
5284.00   0.90510970
5286.00   0.89279383
5288.00   0.90260243
5290.00   0.88990867
5292.00   0.87261254
5294.00   0.89333534
5296.00   0.90395963
5298.00   0.90897763
5300.00   0.89396274
5302.00   0.89203507
5304.00   0.91686004
5306.00   0.92734385
5308.00   0.93610483
5310.00   0.91778070
5312.00   0.91965693
5314.00   0.95134366
5316.00   0.92584735
5318.00   0.92455435
5320.00   0.97780871
5322.00   0.95355922
5324.00   0.96279109
5326.00   0.97765267
5328.00   0.97098982
