# File created by shivutils (I.Shivvers)
# Blotched regions marked with a #.
# wl(A)   flm    er(optional)
3426.00   0.34271097
3428.00   0.39618134
3430.00   0.29967573
3432.00   0.32949528
3434.00   0.41154489
3436.00   0.34171724
3438.00   0.44104171
3440.00   0.43114802
3442.00   0.44237751
3444.00   0.36303973
3446.00   0.42724857
3448.00   0.40320262
3450.00   0.45535451
3452.00   0.47243601
3454.00   0.32975116
3456.00   0.38149393
3458.00   0.38520765
3460.00   0.46855065
3462.00   0.39579150
3464.00   0.39511085
3466.00   0.40811193
3468.00   0.31848776
3470.00   0.41961044
3472.00   0.41874018
3474.00   0.42584866
3476.00   0.47021174
3478.00   0.37626612
3480.00   0.43771303
3482.00   0.35495627
3484.00   0.43996719
3486.00   0.40938851
3488.00   0.51548952
3490.00   0.51460320
3492.00   0.47884220
3494.00   0.46048918
3496.00   0.50818509
3498.00   0.45541644
3500.00   0.49390906
3502.00   0.46669838
3504.00   0.50122559
3506.00   0.46439499
3508.00   0.45076200
3510.00   0.46830603
3512.00   0.44623989
3514.00   0.52078879
3516.00   0.49706262
3518.00   0.54090303
3520.00   0.49267465
3522.00   0.57929564
3524.00   0.59806144
3526.00   0.70492113
3528.00   0.64031416
3530.00   0.56336302
3532.00   0.55567700
3534.00   0.66104257
3536.00   0.64143455
3538.00   0.62736613
3540.00   0.71725029
3542.00   0.67007333
3544.00   0.67757791
3546.00   0.68839872
3548.00   0.72659677
3550.00   0.75389057
3552.00   0.69898599
3554.00   0.71379954
3556.00   0.73576146
3558.00   0.78754163
3560.00   0.78588003
3562.00   0.97587943
3564.00   0.92414159
3566.00   0.79953963
3568.00   0.84310544
3570.00   0.80926484
3572.00   0.82980877
3574.00   0.87580794
3576.00   0.88522702
3578.00   0.74518353
3580.00   0.90414208
3582.00   0.96792877
3584.00   0.87361312
3586.00   0.83546841
3588.00   0.89391798
3590.00   0.97848147
3592.00   0.96328646
3594.00   0.89136517
3596.00   0.89466161
3598.00   0.92131758
3600.00   0.96666592
3602.00   0.93994653
3604.00   0.91264641
3606.00   0.89436316
3608.00   0.92353225
3610.00   0.98525906
3612.00   1.01835811
3614.00   0.95554554
3616.00   0.97013241
3618.00   0.86943054
3620.00   0.91856879
3622.00   0.82338947
3624.00   0.79986465
3626.00   0.81820166
3628.00   0.86439174
3630.00   0.79563874
3632.00   0.86532235
3634.00   0.79076058
3636.00   0.78213423
3638.00   0.72108501
3640.00   0.72750419
3642.00   0.75922114
3644.00   0.72069430
3646.00   0.71637976
3648.00   0.77265459
3650.00   0.80706161
3652.00   0.76329356
3654.00   0.65234095
3656.00   0.66364700
3658.00   0.67886686
3660.00   0.71039885
3662.00   0.64460856
3664.00   0.66146952
3666.00   0.65573359
3668.00   0.59557867
3670.00   0.66797847
3672.00   0.59471041
3674.00   0.61166513
3676.00   0.64411575
3678.00   0.59368503
3680.00   0.63483012
3682.00   0.60135388
3684.00   0.59762162
3686.00   0.67746532
3688.00   0.58895099
3690.00   0.54772329
3692.00   0.57734650
3694.00   0.58259660
3696.00   0.57083678
3698.00   0.46880054
3700.00   0.44088790
3702.00   0.47788250
3704.00   0.52671033
3706.00   0.42573923
3708.00   0.40398222
3710.00   0.41506732
3712.00   0.38763168
3714.00   0.37398571
3716.00   0.36285323
3718.00   0.39397869
3720.00   0.39426628
3722.00   0.39271644
3724.00   0.34771422
3726.00   0.36836106
3728.00   0.30027631
3730.00   0.32745048
3732.00   0.31683445
3734.00   0.33182770
3736.00   0.32943213
3738.00   0.30712116
3740.00   0.33447471
3742.00   0.30214930
3744.00   0.27116278
3746.00   0.29270217
3748.00   0.30323347
3750.00   0.31403190
3752.00   0.28759056
3754.00   0.25954783
3756.00   0.23815180
3758.00   0.25934324
3760.00   0.27765965
3762.00   0.25991160
3764.00   0.22978283
3766.00   0.26332134
3768.00   0.28430384
3770.00   0.25413835
3772.00   0.30253425
3774.00   0.26733133
3776.00   0.28980023
3778.00   0.28082737
3780.00   0.30383772
3782.00   0.29611596
3784.00   0.30570441
3786.00   0.30930245
3788.00   0.29838648
3790.00   0.29071549
3792.00   0.32104862
3794.00   0.29473874
3796.00   0.30200112
3798.00   0.30603614
3800.00   0.35031557
3802.00   0.38361895
3804.00   0.37198815
3806.00   0.35962653
3808.00   0.36381161
3810.00   0.34905249
3812.00   0.38312206
3814.00   0.36635664
3816.00   0.40116751
3818.00   0.42492810
3820.00   0.41501135
3822.00   0.43009159
3824.00   0.48799753
3826.00   0.38571161
3828.00   0.41104501
3830.00   0.40053353
3832.00   0.45306838
3834.00   0.51722407
3836.00   0.48678109
3838.00   0.53088093
3840.00   0.54614717
3842.00   0.51910573
3844.00   0.54410386
3846.00   0.58110988
3848.00   0.57102913
3850.00   0.62842393
3852.00   0.57846838
3854.00   0.65137964
3856.00   0.68964881
3858.00   0.64956796
3860.00   0.67817229
3862.00   0.72912824
3864.00   0.72576940
3866.00   0.76383352
3868.00   0.73626328
3870.00   0.73732316
3872.00   0.80403280
3874.00   0.84829777
3876.00   0.83746260
3878.00   0.88044840
3880.00   0.85994816
3882.00   0.91172856
3884.00   0.93743032
3886.00   0.95349824
3888.00   1.00829327
3890.00   1.06370723
3892.00   1.05344272
3894.00   1.03257167
3896.00   1.11522818
3898.00   1.09988785
3900.00   1.18325663
3902.00   1.18007863
3904.00   1.25666821
3906.00   1.31076491
3908.00   1.36280859
3910.00   1.31259000
3912.00   1.37538588
3914.00   1.40148115
3916.00   1.43369675
3918.00   1.46139348
3920.00   1.49443948
3922.00   1.50408602
3924.00   1.51776886
3926.00   1.50697601
3928.00   1.57539272
3930.00   1.54811847
3932.00   1.36784530
3934.00   1.36025333
3936.00   1.60830414
3938.00   1.71220303
3940.00   1.70620084
3942.00   1.78740239
3944.00   1.70690012
3946.00   1.72248900
3948.00   1.80771244
3950.00   1.79158330
3952.00   1.78525579
3954.00   1.81788123
3956.00   1.79572356
3958.00   1.82273424
3960.00   1.84548903
3962.00   1.72585356
3964.00   1.78888381
3966.00   1.76473784
3968.00   1.56987941
3970.00   1.76047873
3972.00   1.80023515
3974.00   1.74646997
3976.00   1.76035810
3978.00   1.76264989
3980.00   1.75178766
3982.00   1.67667735
3984.00   1.59605229
3986.00   1.49257076
3988.00   1.65240610
3990.00   1.72695780
3992.00   1.65885592
3994.00   1.68341267
3996.00   1.62892997
3998.00   1.67033970
4000.00   1.61196721
4002.00   1.63074768
4004.00   1.58447385
4006.00   1.49847460
4008.00   1.57533848
4010.00   1.56372571
4012.00   1.49126422
4014.00   1.51625049
4016.00   1.51203835
4018.00   1.45135975
4020.00   1.34415841
4022.00   1.33850563
4024.00   1.43522215
4026.00   1.43775105
4028.00   1.40654325
4030.00   1.43213248
4032.00   1.41229916
4034.00   1.41099584
4036.00   1.41431653
4038.00   1.38197005
4040.00   1.36234581
4042.00   1.41183829
4044.00   1.39386702
4046.00   1.42147100
4048.00   1.45747638
4050.00   1.41402936
4052.00   1.44962323
4054.00   1.44031310
4056.00   1.45004106
4058.00   1.40859842
4060.00   1.46024609
4062.00   1.41989779
4064.00   1.45301294
4066.00   1.47593677
4068.00   1.45106292
4070.00   1.45265651
4072.00   1.47504294
4074.00   1.45207369
4076.00   1.49707115
4078.00   1.47164023
4080.00   1.49068868
4082.00   1.52734578
4084.00   1.48376942
4086.00   1.44390678
4088.00   1.57941031
4090.00   1.60000801
4092.00   1.54627740
4094.00   1.59867811
4096.00   1.67368603
4098.00   1.65109062
4100.00   1.64051211
4102.00   1.71786928
4104.00   1.66892362
4106.00   1.72210789
4108.00   1.71386671
4110.00   1.68340766
4112.00   1.72377777
4114.00   1.71233463
4116.00   1.79484153
4118.00   1.73258233
4120.00   1.75475156
4122.00   1.77320635
4124.00   1.74950540
4126.00   1.76467311
4128.00   1.75862277
4130.00   1.77417922
4132.00   1.79787469
4134.00   1.78792417
4136.00   1.81028986
4138.00   1.80166411
4140.00   1.81544268
4142.00   1.76626980
4144.00   1.76043415
4146.00   1.75707006
4148.00   1.73839617
4150.00   1.70853031
4152.00   1.72981179
4154.00   1.71866739
4156.00   1.75063670
4158.00   1.77418017
4160.00   1.74220669
4162.00   1.71862102
4164.00   1.73062384
4166.00   1.77923822
4168.00   1.74107325
4170.00   1.70128798
4172.00   1.70300710
4174.00   1.70375693
4176.00   1.69831991
4178.00   1.69168723
4180.00   1.64606035
4182.00   1.69436908
4184.00   1.66419244
4186.00   1.62283409
4188.00   1.64837146
4190.00   1.70032167
4192.00   1.58811617
4194.00   1.59728670
4196.00   1.62688613
4198.00   1.63824046
4200.00   1.64541090
4202.00   1.66955066
4204.00   1.60109317
4206.00   1.60935628
4208.00   1.58128583
4210.00   1.61605668
4212.00   1.57019150
4214.00   1.63992763
4216.00   1.62482989
4218.00   1.67302513
4220.00   1.57860088
4222.00   1.56400216
4224.00   1.61347961
4226.00   1.59476805
4228.00   1.56759262
4230.00   1.65195429
4232.00   1.62007737
4234.00   1.65471268
4236.00   1.60043311
4238.00   1.61687267
4240.00   1.61849344
4242.00   1.64652991
4244.00   1.66553605
4246.00   1.63275921
4248.00   1.62876451
4250.00   1.60686743
4252.00   1.58418584
4254.00   1.57517219
4256.00   1.60280621
4258.00   1.57104230
4260.00   1.53128350
4262.00   1.55890000
4264.00   1.49589896
4266.00   1.51422620
4268.00   1.50003576
4270.00   1.51380813
4272.00   1.46360433
4274.00   1.44330549
4276.00   1.43282413
4278.00   1.43115306
4280.00   1.44611430
4282.00   1.39478898
4284.00   1.39422572
4286.00   1.36463392
4288.00   1.37743974
4290.00   1.38210392
4292.00   1.36452961
4294.00   1.34847331
4296.00   1.31535113
4298.00   1.30801058
4300.00   1.30370092
4302.00   1.28084195
4304.00   1.32573175
4306.00   1.30115211
4308.00   1.26126981
4310.00   1.22464752
4312.00   1.20313704
4314.00   1.20012081
4316.00   1.17634118
4318.00   1.16593242
4320.00   1.18820012
4322.00   1.13601613
4324.00   1.13662243
4326.00   1.11250854
4328.00   1.10216355
4330.00   1.09748578
4332.00   1.07435405
4334.00   1.05937243
4336.00   1.08987260
4338.00   0.99328780
4340.00   1.00769877
4342.00   0.99372709
4344.00   1.00151634
4346.00   1.04236579
4348.00   0.98842382
4350.00   0.95244646
4352.00   0.96460372
4354.00   1.01205909
4356.00   0.96924353
4358.00   0.94271463
4360.00   0.96056372
4362.00   0.97519499
4364.00   0.96566993
4366.00   0.97967321
4368.00   0.97922337
4370.00   0.95219719
4372.00   0.92708558
4374.00   0.95167840
4376.00   0.94345117
4378.00   0.96740192
4380.00   0.94679123
4382.00   0.94456649
4384.00   0.95155114
4386.00   0.93319130
4388.00   0.95501715
4390.00   0.94902354
4392.00   0.95639348
4394.00   0.96467042
4396.00   0.96537757
4398.00   0.97714096
4400.00   0.97509944
4402.00   0.94721758
4404.00   0.99251825
4406.00   0.99720740
4408.00   1.00358975
4410.00   0.97201252
4412.00   0.92583901
4414.00   0.90529728
4416.00   0.92053473
4418.00   0.97649729
4420.00   0.95382220
4422.00   0.94014144
4424.00   0.94169277
4426.00   0.97478747
4428.00   0.95499212
4430.00   0.96777284
4432.00   0.98866570
4434.00   1.01536286
4436.00   1.03852510
4438.00   1.04146564
4440.00   1.07375169
4442.00   1.07176042
4444.00   1.07788944
4446.00   1.04768789
4448.00   1.11852443
4450.00   1.11082542
4452.00   1.18802798
4454.00   1.11647713
4456.00   1.12639487
4458.00   1.16468549
4460.00   1.25171697
4462.00   1.22681963
4464.00   1.23266685
4466.00   1.25611973
4468.00   1.27025104
4470.00   1.27103829
4472.00   1.28140914
4474.00   1.30373573
4476.00   1.31550348
4478.00   1.30071676
4480.00   1.32403851
4482.00   1.34494591
4484.00   1.34711480
4486.00   1.40557826
4488.00   1.37754726
4490.00   1.39478385
4492.00   1.42454433
4494.00   1.40877008
4496.00   1.45173609
4498.00   1.44028878
4500.00   1.44760418
4502.00   1.46369767
4504.00   1.47488022
4506.00   1.53708649
4508.00   1.48299742
4510.00   1.53958559
4512.00   1.53500998
4514.00   1.53927445
4516.00   1.55773675
4518.00   1.52789831
4520.00   1.59825540
4522.00   1.57895517
4524.00   1.61497211
4526.00   1.60101807
4528.00   1.58448875
4530.00   1.58905578
4532.00   1.67854714
4534.00   1.67634571
4536.00   1.68578255
4538.00   1.66979635
4540.00   1.68107259
4542.00   1.70299399
4544.00   1.75186181
4546.00   1.75623715
4548.00   1.75076842
4550.00   1.74253321
4552.00   1.81918979
4554.00   1.79973602
4556.00   1.81777704
4558.00   1.83539987
4560.00   1.78694916
4562.00   1.83487391
4564.00   1.84533465
4566.00   1.86606979
4568.00   1.90761626
4570.00   1.86624014
4572.00   1.85118830
4574.00   1.90772212
4576.00   1.94709361
4578.00   1.91225529
4580.00   1.90803266
4582.00   1.89049447
4584.00   1.91315806
4586.00   1.87620330
4588.00   1.87030852
4590.00   1.85315180
4592.00   1.84811783
4594.00   1.91580641
4596.00   1.86761642
4598.00   1.86342490
4600.00   1.89806843
4602.00   1.87357557
4604.00   1.91957116
4606.00   1.86357045
4608.00   1.85762262
4610.00   1.88913560
4612.00   1.84044635
4614.00   1.82072175
4616.00   1.90338099
4618.00   1.86615646
4620.00   1.88244808
4622.00   1.84696269
4624.00   1.82417727
4626.00   1.82699692
4628.00   1.89394200
4630.00   1.83205402
4632.00   1.84274697
4634.00   1.79421151
4636.00   1.82577658
4638.00   1.83647621
4640.00   1.84031963
4642.00   1.85742903
4644.00   1.83936465
4646.00   1.82293892
4648.00   1.90686715
4650.00   1.81663835
4652.00   1.82083511
4654.00   1.80570090
4656.00   1.84601343
4658.00   1.80726361
4660.00   1.82173526
4662.00   1.78925955
4664.00   1.81611240
4666.00   1.79773903
4668.00   1.78641188
4670.00   1.75447416
4672.00   1.75846744
4674.00   1.72860181
4676.00   1.74503994
4678.00   1.69034564
4680.00   1.70093417
4682.00   1.71517372
4684.00   1.75249898
4686.00   1.72610927
4688.00   1.67470455
4690.00   1.69518328
4692.00   1.63922048
4694.00   1.63792229
4696.00   1.64001548
4698.00   1.60799611
4700.00   1.60996032
4702.00   1.55491149
4704.00   1.56720531
4706.00   1.52943003
4708.00   1.53247201
4710.00   1.51743269
4712.00   1.49323773
4714.00   1.51861024
4716.00   1.48207021
4718.00   1.49596620
4720.00   1.44581664
4722.00   1.43092799
4724.00   1.43915939
4726.00   1.39922261
4728.00   1.40656078
4730.00   1.35447681
4732.00   1.37846339
4734.00   1.38387454
4736.00   1.34728909
4738.00   1.32468295
4740.00   1.31534708
4742.00   1.31744885
4744.00   1.27170622
4746.00   1.24920118
4748.00   1.23339176
4750.00   1.21670341
4752.00   1.21724260
4754.00   1.21686625
4756.00   1.20462167
4758.00   1.16922903
4760.00   1.16216290
4762.00   1.12698185
4764.00   1.12957084
4766.00   1.14073801
4768.00   1.14377022
4770.00   1.12760997
4772.00   1.13810170
4774.00   1.14401257
4776.00   1.15067768
4778.00   1.15116692
4780.00   1.11768162
4782.00   1.11888409
4784.00   1.07145154
4786.00   1.10158682
4788.00   1.07861876
4790.00   1.08103669
4792.00   1.08555150
4794.00   1.10362148
4796.00   1.15464437
4798.00   1.11098886
4800.00   1.11646223
4802.00   1.12610734
4804.00   1.15007627
4806.00   1.10281885
4808.00   1.09692776
4810.00   1.15449464
4812.00   1.14138246
4814.00   1.11787498
4816.00   1.12076712
4818.00   1.09433103
4820.00   1.08908820
4822.00   1.08868325
4824.00   1.05982590
4826.00   1.04211318
4828.00   1.06437922
4830.00   1.05893743
4832.00   1.05840909
4834.00   1.02411199
4836.00   0.99987590
4838.00   1.04947734
4840.00   0.97917646
4842.00   0.99855280
4844.00   0.99293679
4846.00   0.99747998
4848.00   1.02023208
4850.00   1.01453769
4852.00   1.01573050
4854.00   0.98078626
4856.00   0.99369246
4858.00   0.98209280
4860.00   0.98456532
4862.00   1.02134597
4864.00   0.96922493
4866.00   0.96819365
4868.00   0.92448133
4870.00   0.94021356
4872.00   0.92547387
4874.00   0.94184428
4876.00   0.92943394
4878.00   0.90558141
4880.00   0.92284960
4882.00   0.90928042
4884.00   0.89573008
4886.00   0.91611105
4888.00   0.90882981
4890.00   0.92864281
4892.00   0.90349472
4894.00   0.90827250
4896.00   0.92962819
4898.00   0.94178557
4900.00   0.90707487
4902.00   0.93745279
4904.00   0.91730082
4906.00   0.91980141
4908.00   0.92803091
4910.00   0.92621231
4912.00   0.91459370
4914.00   0.95243412
4916.00   0.95734936
4918.00   0.95756292
4920.00   0.95626754
4922.00   0.98615319
4924.00   0.99545979
4926.00   1.01610804
4928.00   1.02384472
4930.00   1.05142295
4932.00   1.08960080
4934.00   1.08507764
4936.00   1.07110417
4938.00   1.11031532
4940.00   1.12442565
4942.00   1.12081277
4944.00   1.13448393
4946.00   1.16576946
4948.00   1.18766689
4950.00   1.18967128
4952.00   1.20828354
4954.00   1.18564618
4956.00   1.19174445
4958.00   1.18977833
4960.00   1.20455635
4962.00   1.24320853
4964.00   1.19979489
4966.00   1.19782162
4968.00   1.15966916
4970.00   1.18164539
4972.00   1.16213536
4974.00   1.14195764
4976.00   1.09072912
4978.00   1.08095014
4980.00   1.07729208
4982.00   1.10207808
4984.00   1.04830790
4986.00   1.06032979
4988.00   1.05566001
4990.00   1.04487956
4992.00   1.05315769
4994.00   1.00311923
4996.00   1.01163769
4998.00   0.98751813
5000.00   1.00474513
5002.00   1.01283848
5004.00   1.00298560
5006.00   0.98717701
5008.00   0.99975610
5010.00   0.94870716
5012.00   0.98858434
5014.00   1.00069451
5016.00   0.96337062
5018.00   0.97181034
5020.00   0.94795370
5022.00   0.98458469
5024.00   0.95539927
5026.00   0.97045279
5028.00   0.94051796
5030.00   0.92069095
5032.00   0.92990083
5034.00   0.92731655
5036.00   0.94150043
5038.00   0.97226787
5040.00   0.98002374
5042.00   0.95887864
5044.00   0.95591092
5046.00   0.93815899
5048.00   0.96482617
5050.00   0.97071517
5052.00   0.98351544
5054.00   0.96931922
5056.00   1.00176179
5058.00   1.00321281
5060.00   1.01055598
5062.00   1.00399566
5064.00   0.99786711
5066.00   0.98508459
5068.00   1.03423023
5070.00   1.06337678
5072.00   1.05231273
5074.00   1.04423773
5076.00   1.04773974
5078.00   1.06465423
5080.00   1.07841659
5082.00   1.09310877
5084.00   1.09537864
5086.00   1.07830012
5088.00   1.09610987
5090.00   1.06916416
5092.00   1.14210594
5094.00   1.14269376
5096.00   1.13914871
5098.00   1.17498887
5100.00   1.16377842
5102.00   1.16475463
5104.00   1.19010687
5106.00   1.17849469
5108.00   1.21968317
5110.00   1.22159326
5112.00   1.20667815
5114.00   1.23467910
5116.00   1.28168321
5118.00   1.26677978
5120.00   1.26045418
5122.00   1.27025783
5124.00   1.27909756
5126.00   1.28485429
5128.00   1.32740247
5130.00   1.28984940
5132.00   1.28222704
5134.00   1.32534051
5136.00   1.33486617
5138.00   1.41889536
5140.00   1.38447845
5142.00   1.41483605
5144.00   1.41906059
5146.00   1.42302489
5148.00   1.50739670
5150.00   1.48407280
5152.00   1.46841598
5154.00   1.48564458
5156.00   1.49121773
5158.00   1.52596927
5160.00   1.54859686
5162.00   1.53869057
5164.00   1.56062210
5166.00   1.57665455
5168.00   1.58315110
5170.00   1.62676585
5172.00   1.64431906
5174.00   1.61915636
5176.00   1.61511409
5178.00   1.65854144
5180.00   1.61857390
5182.00   1.68300343
5184.00   1.69608486
5186.00   1.70727670
5188.00   1.72695422
5190.00   1.72289431
5192.00   1.72098839
5194.00   1.73930109
5196.00   1.73837054
5198.00   1.75313890
5200.00   1.74027622
5202.00   1.75982928
5204.00   1.76339805
5206.00   1.76971960
5208.00   1.76358175
5210.00   1.74961245
5212.00   1.74771595
5214.00   1.76133370
5216.00   1.76554418
5218.00   1.78186440
5220.00   1.77983510
5222.00   1.78141224
5224.00   1.80514860
5226.00   1.84286213
5228.00   1.81813741
5230.00   1.79905367
5232.00   1.81633580
5234.00   1.82179272
5236.00   1.81816518
5238.00   1.85630977
5240.00   1.80469179
5242.00   1.81362522
5244.00   1.84217870
5246.00   1.80049992
5248.00   1.82071602
5250.00   1.84126449
5252.00   1.82326901
5254.00   1.81666601
5256.00   1.84545398
5258.00   1.78117549
5260.00   1.79092002
5262.00   1.78704131
5264.00   1.84432054
5266.00   1.85548496
5268.00   1.79514718
5270.00   1.81056345
5272.00   1.80958378
5274.00   1.82246113
5276.00   1.79431081
5278.00   1.75300527
5280.00   1.75575376
5282.00   1.69580710
5284.00   1.67408597
5286.00   1.68604636
5288.00   1.68740749
5290.00   1.62292826
5292.00   1.65508258
5294.00   1.59435081
5296.00   1.54721367
5298.00   1.52966714
5300.00   1.51684642
5302.00   1.51527047
5304.00   1.49985385
5306.00   1.49588537
5308.00   1.45749283
5310.00   1.42561352
5312.00   1.40142357
5314.00   1.34746957
5316.00   1.39222801
5318.00   1.31165636
