# File created by shivutils (I.Shivvers)
# Blotched regions marked with a #.
# wl(A)   flm    er(optional)
3450.00   0.77910573
3452.00   0.82498943
3454.00   0.81696755
3456.00   0.76689148
3458.00   0.86518891
3460.00   0.92775755
3462.00   0.81234257
3464.00   0.84518752
3466.00   0.89846975
3468.00   0.85891453
3470.00   0.88270644
3472.00   0.80521794
3474.00   0.80119323
3476.00   0.86443697
3478.00   0.83147819
3480.00   0.82119302
3482.00   0.87709267
3484.00   0.86246885
3486.00   0.81053989
3488.00   0.82947967
3490.00   0.86997547
3492.00   0.91388328
3494.00   0.90703310
3496.00   0.91203557
3498.00   0.87282807
3500.00   0.90214207
3502.00   0.87919305
3504.00   0.89315844
3506.00   0.90877498
3508.00   0.86960384
3510.00   0.87088061
3512.00   0.88527669
3514.00   0.86786001
3516.00   0.87802906
3518.00   0.88119489
3520.00   0.89031875
3522.00   0.84552233
3524.00   0.85704188
3526.00   0.86988711
3528.00   0.86133358
3530.00   0.87160571
3532.00   0.87580013
3534.00   0.86303670
3536.00   0.81070110
3538.00   0.84536731
3540.00   0.92418893
3542.00   0.86129429
3544.00   0.81638122
3546.00   0.86371996
3548.00   0.88695099
3550.00   0.88807754
3552.00   0.85758382
3554.00   0.86692424
3556.00   0.83768668
3558.00   0.82895953
3560.00   0.88068708
3562.00   0.84882059
3564.00   0.83764961
3566.00   0.85335464
3568.00   0.83845836
3570.00   0.86964777
3572.00   0.87951672
3574.00   0.82418964
3576.00   0.85859923
3578.00   0.88437162
3580.00   0.82322746
3582.00   0.82210971
3584.00   0.87665483
3586.00   0.88111905
3588.00   0.86987503
3590.00   0.86933210
3592.00   0.85924251
3594.00   0.89703544
3596.00   0.89293684
3598.00   0.93217731
3600.00   0.91205696
3602.00   0.89672385
3604.00   0.91026721
3606.00   0.88732119
3608.00   0.92609157
3610.00   0.88931469
3612.00   0.86943639
3614.00   0.89945790
3616.00   0.90401479
3618.00   0.93716786
3620.00   0.92459659
3622.00   0.93788859
3624.00   0.93311477
3626.00   0.90029335
3628.00   0.91397260
3630.00   0.89288796
3632.00   0.91327907
3634.00   0.87864574
3636.00   0.91970155
3638.00   0.87956289
3640.00   0.90684061
3642.00   0.92509668
3644.00   0.90604394
3646.00   0.91393649
3648.00   0.90189859
3650.00   0.95027723
3652.00   0.95615756
3654.00   0.89725651
3656.00   0.88842558
3658.00   0.89218820
3660.00   0.89671858
3662.00   0.88677223
3664.00   0.84312520
3666.00   0.90648650
3668.00   0.89445548
3670.00   0.88728162
3672.00   0.89915466
3674.00   0.89216165
3676.00   0.87242677
3678.00   0.88591116
3680.00   0.86998010
3682.00   0.90283755
3684.00   0.90281774
3686.00   0.86152432
3688.00   0.88880113
3690.00   0.88792641
3692.00   0.88589266
3694.00   0.91531698
3696.00   0.88004679
3698.00   0.87029859
3700.00   0.83049242
3702.00   0.92187077
3704.00   0.85907130
3706.00   0.83993967
3708.00   0.89838199
3710.00   0.85982240
3712.00   0.85539550
3714.00   0.87205686
3716.00   0.86293385
3718.00   0.85640085
3720.00   0.90589065
3722.00   0.88113788
3724.00   0.86688531
3726.00   0.93279865
3728.00   0.91089081
3730.00   0.92514920
3732.00   0.95492712
3734.00   0.93806342
3736.00   0.94713634
3738.00   0.95156809
3740.00   0.94961485
3742.00   0.98755857
3744.00   0.95599806
3746.00   0.96827856
3748.00   0.98805049
3750.00   0.96248164
3752.00   0.97447921
3754.00   0.95786753
3756.00   0.93260428
3758.00   0.96202665
3760.00   0.93426561
3762.00   0.90385587
3764.00   0.92310721
3766.00   0.93833362
3768.00   0.91986302
3770.00   0.93146333
3772.00   0.91486632
3774.00   0.90934886
3776.00   0.89780832
3778.00   0.88132839
3780.00   0.91877195
3782.00   0.91077538
3784.00   0.86344898
3786.00   0.86308679
3788.00   0.87160266
3790.00   0.87212906
3792.00   0.89350394
3794.00   0.90777278
3796.00   0.86971120
3798.00   0.89224434
3800.00   0.90271916
3802.00   0.84435419
3804.00   0.84632059
3806.00   0.83819832
3808.00   0.85849728
3810.00   0.84948133
3812.00   0.87522417
3814.00   0.81265877
3816.00   0.82004189
3818.00   0.81275471
3820.00   0.83771740
3822.00   0.82827822
3824.00   0.82915440
3826.00   0.86357690
3828.00   0.89053288
3830.00   0.86322577
3832.00   0.89873982
3834.00   0.94896924
3836.00   0.93084479
3838.00   0.93532662
3840.00   0.94344493
3842.00   0.95620669
3844.00   0.95135140
3846.00   0.97399974
3848.00   0.97056696
3850.00   0.98512592
3852.00   0.99452765
3854.00   1.01561797
3856.00   0.97461913
3858.00   0.97175030
3860.00   1.01125726
3862.00   1.01054894
3864.00   0.99995244
3866.00   1.00433020
3868.00   1.02455342
3870.00   1.00306449
3872.00   1.02587920
3874.00   1.01488452
3876.00   0.99606723
3878.00   1.01349223
3880.00   0.98032914
3882.00   0.94909423
3884.00   0.94971846
3886.00   0.91372140
3888.00   0.88166790
3890.00   0.88635888
3892.00   0.86818682
3894.00   0.90439371
3896.00   0.88085458
3898.00   0.94769224
3900.00   0.94463462
3902.00   0.94522058
3904.00   0.97845493
3906.00   0.97226943
3908.00   0.99237490
3910.00   0.97028893
3912.00   0.96823379
3914.00   0.99465429
3916.00   0.93022504
3918.00   0.97082164
3920.00   0.93626646
3922.00   0.93186004
3924.00   0.93416022
3926.00   0.90576954
3928.00   0.90376705
3930.00   0.87872942
3932.00   0.80276033
3934.00   0.84205885
3936.00   0.86404626
3938.00   0.91763932
3940.00   0.94980207
3942.00   0.93293157
3944.00   0.94753451
3946.00   0.97986276
3948.00   0.99454649
3950.00   0.92934168
3952.00   0.88636913
3954.00   0.93412636
3956.00   0.95917444
3958.00   0.96240928
3960.00   0.94758121
3962.00   0.93437125
3964.00   0.93116903
3966.00   0.90916293
3968.00   0.82433380
3970.00   0.86460799
3972.00   0.89609926
3974.00   0.92671928
3976.00   0.92979864
3978.00   0.91970717
3980.00   0.91119144
3982.00   0.92404078
3984.00   0.93214783
3986.00   0.91919741
3988.00   0.92405359
3990.00   0.92513808
3992.00   0.93729467
3994.00   0.95793085
3996.00   0.95773520
3998.00   0.96616225
4000.00   0.94939183
4002.00   0.95723202
4004.00   0.97038678
4006.00   0.95945522
4008.00   0.95134544
4010.00   0.97035510
4012.00   0.98264697
4014.00   0.96882988
4016.00   0.93003830
4018.00   0.96907762
4020.00   0.97839899
4022.00   0.97302044
4024.00   0.95179882
4026.00   0.96019105
4028.00   0.95405181
4030.00   0.94393118
4032.00   0.92524929
4034.00   1.00589865
4036.00   1.02345264
4038.00   1.04269905
4040.00   1.06187871
4042.00   1.03157376
4044.00   1.06566519
4046.00   1.03536039
4048.00   0.97114677
4050.00   1.01599897
4052.00   1.02313789
4054.00   1.03480049
4056.00   1.01644672
4058.00   1.03658396
4060.00   0.98871078
4062.00   0.97707495
4064.00   0.98191527
4066.00   0.97525473
4068.00   0.95653533
4070.00   0.96726370
4072.00   0.93161705
4074.00   0.92396826
4076.00   0.94106957
4078.00   0.91435636
4080.00   0.91898349
4082.00   0.91409434
4084.00   0.89977433
4086.00   0.87808101
4088.00   0.87663042
4090.00   0.91816343
4092.00   0.89926418
4094.00   0.92844661
4096.00   0.90395523
4098.00   0.91631946
4100.00   0.92549586
4102.00   0.89954415
4104.00   0.91625561
4106.00   0.90536370
4108.00   0.92571538
4110.00   0.92278834
4112.00   0.92813800
4114.00   0.91380627
4116.00   0.91818578
4118.00   0.95222325
4120.00   0.93299577
4122.00   0.92579110
4124.00   0.93994731
4126.00   0.95221903
4128.00   0.93281917
4130.00   0.93722394
4132.00   0.97659830
4134.00   0.95733395
4136.00   0.96419863
4138.00   0.95364912
4140.00   0.96832272
4142.00   0.97193520
4144.00   0.98313802
4146.00   0.97563083
4148.00   0.96933047
4150.00   1.00596844
4152.00   1.00142036
4154.00   1.01249374
4156.00   1.01488432
4158.00   1.01190166
4160.00   0.98718724
4162.00   1.01978945
4164.00   1.00601202
4166.00   1.02391168
4168.00   1.00755720
4170.00   0.98932083
4172.00   0.97162184
4174.00   0.99078827
4176.00   0.96829823
4178.00   0.96576767
4180.00   0.96449304
4182.00   0.96290217
4184.00   0.95473363
4186.00   0.97283490
4188.00   0.94340967
4190.00   0.96480245
4192.00   0.94270203
4194.00   0.93173152
4196.00   0.94081443
4198.00   0.93467804
4200.00   0.93334793
4202.00   0.94921381
4204.00   0.94554338
4206.00   0.94248976
4208.00   0.96537704
4210.00   0.92840041
4212.00   0.95232196
4214.00   0.94406381
4216.00   0.92517595
4218.00   0.92295191
4220.00   0.94540419
4222.00   0.92527958
4224.00   0.91911437
4226.00   0.91590266
4228.00   0.91656997
4230.00   0.92990545
4232.00   0.93395031
4234.00   0.92884348
4236.00   0.94750056
4238.00   0.94151420
4240.00   0.90324776
4242.00   0.91847845
4244.00   0.92913599
4246.00   0.92503661
4248.00   0.91760463
4250.00   0.92799781
4252.00   0.94837727
4254.00   0.93154646
4256.00   0.94695343
4258.00   0.94124028
4260.00   0.97592806
4262.00   0.95056435
4264.00   0.93764227
4266.00   0.96567565
4268.00   0.93896943
4270.00   0.93896622
4272.00   0.96989507
4274.00   0.94167289
4276.00   0.93406196
4278.00   0.93465523
4280.00   0.94547595
4282.00   0.91983858
4284.00   0.92430759
4286.00   0.93893678
4288.00   0.92712871
4290.00   0.94854506
4292.00   0.94322046
4294.00   0.93431222
4296.00   0.93683647
4298.00   0.91385960
4300.00   0.90641187
4302.00   0.92433489
4304.00   0.92427742
4306.00   0.93760414
4308.00   0.95006285
4310.00   0.93585538
4312.00   0.94959009
4314.00   0.93326129
4316.00   0.92441268
4318.00   0.93200138
4320.00   0.93507551
4322.00   0.93522769
4324.00   0.92328606
4326.00   0.90781423
4328.00   0.92915029
4330.00   0.91751513
4332.00   0.89929488
4334.00   0.89701836
4336.00   0.90941026
4338.00   0.90368230
4340.00   0.90856941
4342.00   0.89962373
4344.00   0.88601460
4346.00   0.91895112
4348.00   0.91516113
4350.00   0.88631202
4352.00   0.92104258
4354.00   0.94178640
4356.00   0.94086822
4358.00   0.92623022
4360.00   0.84347333
4362.00   0.91365237
4364.00   0.90589921
4366.00   0.93535807
4368.00   0.91168987
4370.00   0.93008010
4372.00   0.93608867
4374.00   0.91904197
4376.00   0.94589164
4378.00   0.94410588
4380.00   0.94256320
4382.00   0.91928389
4384.00   0.92258985
4386.00   0.93761056
4388.00   0.91967578
4390.00   0.89909652
4392.00   0.90844455
4394.00   0.89508990
4396.00   0.90846551
4398.00   0.92143553
4400.00   0.93785413
4402.00   0.93465819
4404.00   0.93702226
4406.00   0.94039528
4408.00   0.90132416
4410.00   0.89766152
4412.00   0.90256688
4414.00   0.89942601
4416.00   0.87977087
4418.00   0.85453308
4420.00   0.86551075
4422.00   0.85838394
4424.00   0.81432181
4426.00   0.82722317
4428.00   0.82270377
4430.00   0.82251944
4432.00   0.81490117
4434.00   0.83976945
4436.00   0.83958671
4438.00   0.87124066
4440.00   0.85146181
4442.00   0.83086139
4444.00   0.84480865
4446.00   0.87800150
4448.00   0.87633988
4450.00   0.88959785
4452.00   0.86986302
4454.00   0.88537485
4456.00   0.89255967
4458.00   0.89353599
4460.00   0.90589609
4462.00   0.89928839
4464.00   0.90668618
4466.00   0.90301142
4468.00   0.88141798
4470.00   0.87637385
4472.00   0.86012621
4474.00   0.84905329
4476.00   0.85324143
4478.00   0.88634285
4480.00   0.91603994
4482.00   0.92533797
4484.00   0.94067115
4486.00   0.98609711
4488.00   0.99595072
4490.00   0.97979222
4492.00   0.99706896
4494.00   1.00796020
4496.00   0.99391137
4498.00   0.99120681
4500.00   0.97547637
4502.00   1.00264384
4504.00   0.99061406
4506.00   0.99052779
4508.00   0.99357269
4510.00   0.99124177
4512.00   0.97314979
4514.00   0.97804254
4516.00   1.00059413
4518.00   0.97870081
4520.00   0.99000416
4522.00   0.96796739
4524.00   0.96437855
4526.00   0.98931925
4528.00   0.95669013
4530.00   0.97698648
4532.00   0.98336510
4534.00   0.98399235
4536.00   0.98967015
4538.00   0.98007897
4540.00   0.97780670
4542.00   1.00906862
4544.00   1.01621840
4546.00   0.98979022
4548.00   1.00130025
4550.00   0.99935923
4552.00   1.01668437
4554.00   1.02421215
4556.00   1.00348433
4558.00   1.00887306
4560.00   0.98660994
4562.00   0.99696304
4564.00   0.99439309
4566.00   0.99921076
4568.00   0.97565001
4570.00   0.98487931
4572.00   1.00623718
4574.00   0.99714266
4576.00   0.99404788
4578.00   1.01637491
4580.00   0.99892685
4582.00   1.00288367
4584.00   1.00216724
4586.00   0.98410923
4588.00   0.99816727
4590.00   1.01177715
4592.00   1.00725263
4594.00   1.00820326
4596.00   1.00022684
4598.00   1.00868901
4600.00   1.01115127
4602.00   0.99298081
4604.00   0.98983529
4606.00   1.00490287
4608.00   0.99579127
4610.00   1.00764480
4612.00   0.98512950
4614.00   0.97737833
4616.00   0.99455057
4618.00   0.99699809
4620.00   1.00330938
4622.00   1.01395545
4624.00   1.01040311
4626.00   1.00991380
4628.00   0.99592631
4630.00   1.01401710
4632.00   0.99307600
4634.00   1.00306369
4636.00   1.00295850
4638.00   1.00395133
4640.00   1.00065915
4642.00   0.98736833
4644.00   0.99974271
4646.00   1.00224062
4648.00   0.99806758
4650.00   1.00078866
4652.00   0.97535193
4654.00   0.99146720
4656.00   0.97956484
4658.00   0.98798781
4660.00   0.98686226
4662.00   0.98371662
4664.00   0.98358381
4666.00   0.97852531
4668.00   0.98007028
4670.00   0.97065252
4672.00   0.95533360
4674.00   0.96010120
4676.00   0.96121998
4678.00   0.97719861
4680.00   0.96570736
4682.00   0.97932409
4684.00   0.97806241
4686.00   0.98267650
4688.00   0.98245751
4690.00   0.99000868
4692.00   0.99577449
4694.00   0.98545372
4696.00   0.97245683
4698.00   1.00047868
4700.00   0.98259695
4702.00   0.98518938
4704.00   0.98603310
4706.00   0.99188548
4708.00   0.97739007
4710.00   0.98669206
4712.00   0.96987391
4714.00   0.96088882
4716.00   0.95080276
4718.00   0.95031888
4720.00   0.96883958
4722.00   0.97281608
4724.00   0.97330233
4726.00   0.97533222
4728.00   0.97877665
4730.00   0.97753514
4732.00   0.98058013
4734.00   0.96705962
4736.00   0.96713303
4738.00   0.95897625
4740.00   0.95788314
4742.00   0.95228595
4744.00   0.97457752
4746.00   0.94549526
4748.00   0.94065879
4750.00   0.92731735
4752.00   0.93289368
4754.00   0.93448100
4756.00   0.91784487
4758.00   0.92681511
4760.00   0.90462432
4762.00   0.90450563
4764.00   0.88795830
4766.00   0.91033174
4768.00   0.89502727
4770.00   0.89240950
4772.00   0.91059938
4774.00   0.88550562
4776.00   0.89916367
4778.00   0.88339901
4780.00   0.86614517
4782.00   0.89012606
4784.00   0.86492627
4786.00   0.88154681
4788.00   0.86545490
4790.00   0.87209077
4792.00   0.87552766
4794.00   0.87352240
4796.00   0.87759626
4798.00   0.87191450
4800.00   0.89601510
4802.00   0.88756127
4804.00   0.88486400
4806.00   0.87521802
4808.00   0.86847045
4810.00   0.88507184
4812.00   0.88418016
4814.00   0.89246232
4816.00   0.88824866
4818.00   0.89513452
4820.00   0.91093203
4822.00   0.91440384
4824.00   0.89389948
4826.00   0.88984847
4828.00   0.87474694
4830.00   0.88124180
4832.00   0.89445499
4834.00   0.89595455
4836.00   0.90757798
4838.00   0.90298613
4840.00   0.91225433
4842.00   0.89269731
4844.00   0.88026096
4846.00   0.89809361
4848.00   0.88683207
4850.00   0.88060698
4852.00   0.89371277
4854.00   0.86547941
4856.00   0.88340685
4858.00   0.86869985
4860.00   0.84638742
4862.00   0.86691202
4864.00   0.85221004
4866.00   0.83002226
4868.00   0.84808850
4870.00   0.86623644
4872.00   0.85544264
4874.00   0.85129406
4876.00   0.86561095
4878.00   0.86024875
4880.00   0.87186009
4882.00   0.86921153
4884.00   0.88815414
4886.00   0.88652220
4888.00   0.88352370
4890.00   0.89079142
4892.00   0.90356861
4894.00   0.92110973
4896.00   0.90101281
4898.00   0.92585213
4900.00   0.92054284
4902.00   0.93625512
4904.00   0.94673305
4906.00   0.94714810
4908.00   0.94518738
4910.00   0.92374281
4912.00   0.93968609
4914.00   0.91928645
4916.00   0.93083679
4918.00   0.95106194
4920.00   0.93161838
4922.00   0.90351833
4924.00   0.91323505
4926.00   0.90622448
4928.00   0.92676575
4930.00   0.92261577
4932.00   0.95759609
4934.00   0.95375084
4936.00   0.94878368
4938.00   0.93819974
4940.00   0.93546339
4942.00   0.95083057
4944.00   0.94294723
4946.00   0.94905264
4948.00   0.95196297
4950.00   0.93424883
4952.00   0.92803678
4954.00   0.91618871
4956.00   0.94097439
4958.00   0.91949767
4960.00   0.91282122
4962.00   0.89931918
4964.00   0.89606315
4966.00   0.92467812
4968.00   0.92806679
4970.00   0.89870555
4972.00   0.92950929
4974.00   0.91451721
4976.00   0.92110464
4978.00   0.91089849
4980.00   0.93964388
4982.00   0.92525562
4984.00   0.94951017
4986.00   0.93912147
4988.00   0.93871252
4990.00   0.95111402
4992.00   0.95336452
4994.00   0.95634628
4996.00   0.95141997
4998.00   0.96198048
5000.00   0.97916886
5002.00   0.97675392
5004.00   0.99529273
5006.00   0.99260490
5008.00   0.99175976
5010.00   0.98723575
5012.00   0.97855961
5014.00   0.97785975
5016.00   0.99000370
5018.00   0.98065464
5020.00   0.97051647
5022.00   0.98445979
5024.00   1.00706045
5026.00   1.02370801
5028.00   1.02784402
5030.00   1.04713326
5032.00   1.04821381
5034.00   1.06202365
5036.00   1.06453770
5038.00   1.05647996
5040.00   1.07163768
5042.00   1.06017071
5044.00   1.05413545
5046.00   1.05214993
5048.00   1.04347486
5050.00   1.05120137
5052.00   1.05163398
5054.00   1.04128941
5056.00   1.03418303
5058.00   1.05028321
5060.00   1.05899452
5062.00   1.03892062
5064.00   1.04075283
5066.00   1.01990894
5068.00   1.02218190
5070.00   1.03010772
5072.00   1.00490807
5074.00   1.00511514
5076.00   0.99448503
5078.00   0.99250148
5080.00   0.98085277
5082.00   0.98386358
5084.00   0.98338590
5086.00   0.95139083
5088.00   0.94171297
5090.00   0.94829302
5092.00   0.93445071
5094.00   0.92904518
5096.00   0.93740554
5098.00   0.92838973
5100.00   0.90630786
5102.00   0.91438093
5104.00   0.90173055
5106.00   0.91921621
5108.00   0.91875402
5110.00   0.90207191
5112.00   0.89528246
5114.00   0.88832390
5116.00   0.89857260
5118.00   0.89521960
5120.00   0.91023472
5122.00   0.91272096
5124.00   0.92079314
5126.00   0.90492359
5128.00   0.92227051
5130.00   0.94320049
5132.00   0.93620869
5134.00   0.90710151
5136.00   0.91903503
5138.00   0.92238035
5140.00   0.93725705
5142.00   0.92596442
5144.00   0.93892846
5146.00   0.92653826
5148.00   0.93673046
5150.00   0.93803694
5152.00   0.96126228
5154.00   0.92373293
5156.00   0.94307827
5158.00   0.92206028
5160.00   0.93116511
5162.00   0.92934542
5164.00   0.94238515
5166.00   0.93936453
5168.00   0.92553947
5170.00   0.92928652
5172.00   0.92591369
5174.00   0.92475396
5176.00   0.92551108
5178.00   0.94941407
5180.00   0.94109587
5182.00   0.94540793
5184.00   0.96207626
5186.00   0.94717831
5188.00   0.94153628
5190.00   0.93409875
5192.00   0.93266339
5194.00   0.93085999
5196.00   0.94368982
5198.00   0.92951660
5200.00   0.95316030
5202.00   0.92984999
5204.00   0.92030861
5206.00   0.92096218
5208.00   0.93554230
5210.00   0.95411459
5212.00   0.94542719
5214.00   0.93819944
5216.00   0.94592975
5218.00   0.93602423
5220.00   0.93120420
5222.00   0.94420751
5224.00   0.94139673
5226.00   0.95093167
5228.00   0.96033071
5230.00   0.95192583
5232.00   0.92086371
5234.00   0.94125431
5236.00   0.94349433
5238.00   0.93839843
5240.00   0.95483950
5242.00   0.94991172
5244.00   0.93725017
5246.00   0.94686952
5248.00   0.94946606
5250.00   0.94971327
5252.00   0.94091877
5254.00   0.94030474
5256.00   0.94642417
5258.00   0.93003209
5260.00   0.93010465
5262.00   0.93390349
5264.00   0.93338512
5266.00   0.94405352
5268.00   0.94298833
5270.00   0.95932715
5272.00   0.94610914
5274.00   0.96180223
5276.00   0.93855637
5278.00   0.95520586
5280.00   0.95151713
5282.00   0.96692344
5284.00   0.97129157
5286.00   0.94013986
5288.00   0.93945885
5290.00   0.93687854
5292.00   0.95184249
5294.00   0.93883827
5296.00   0.94312279
5298.00   0.95758978
5300.00   0.92289249
5302.00   0.96301661
5304.00   0.93705509
5306.00   0.95262727
5308.00   0.96229447
5310.00   0.97036865
5312.00   0.95082461
5314.00   0.95972132
5316.00   0.95338268
5318.00   0.93280583
5320.00   0.93965798
5322.00   0.94730794
5324.00   0.94437042
5326.00   0.95316649
5328.00   0.93697834
5330.00   0.95290607
5332.00   0.94147580
5334.00   0.94082418
5336.00   0.92486767
5338.00   0.93614544
5340.00   0.93797561
5342.00   0.92240282
