# File created by shivutils (I.Shivvers)
# Manually joined b and r; some significant match between them!
# wl(A)   flm    er(optional)
3050.00   26.14561519
3052.00   22.56793051
3054.00   22.51674612
3056.00   24.26516323
3058.00   22.22468170
3060.00   24.11704186
3062.00   25.81782615
3064.00   22.49480995
3066.00   23.96704025
3068.00   27.14799365
3070.00   29.01799982
3072.00   26.79283663
3074.00   25.32227765
3076.00   24.08654014
3078.00   23.98270894
3080.00   26.77612336
3082.00   28.49194960
3084.00   26.93489944
3086.00   23.80721959
3088.00   26.64471526
3090.00   30.10373572
3092.00   32.15528979
3094.00   31.52749753
3096.00   30.58319769
3098.00   28.24271293
3100.00   28.90476740
3102.00   36.32399754
3104.00   34.60273949
3106.00   32.18934308
3108.00   30.15721818
3110.00   32.39637873
3112.00   30.75053932
3114.00   30.71439687
3116.00   32.82382065
3118.00   31.44998974
3120.00   31.44769166
3122.00   33.30871444
3124.00   35.92851975
3126.00   34.07146637
3128.00   32.04895160
3130.00   30.83619484
3132.00   31.12387203
3134.00   32.01928555
3136.00   33.62626660
3138.00   35.32099233
3140.00   35.00991657
3142.00   30.94629352
3144.00   32.05333884
3146.00   34.87809064
3148.00   31.20388681
3150.00   31.19323210
3152.00   31.56259540
3154.00   31.47631314
3156.00   30.86272716
3158.00   30.31912800
3160.00   29.27392179
3162.00   28.16583188
3164.00   28.76959882
3166.00   28.48192163
3168.00   27.24722870
3170.00   26.14582411
3172.00   28.66367846
3174.00   28.78714775
3176.00   28.27321465
3178.00   27.68678774
3180.00   29.06793071
3182.00   27.89507689
3184.00   25.37617796
3186.00   25.63251776
3188.00   27.22654603
3190.00   28.26444019
3192.00   28.06429876
3194.00   27.00739325
3196.00   27.14172617
3198.00   26.29875054
3200.00   24.99866694
3202.00   25.74303426
3204.00   28.11026026
3206.00   29.44042775
3208.00   28.26151536
3210.00   28.43972062
3212.00   27.83595369
3214.00   27.42418046
3216.00   28.37997068
3218.00   26.63823887
3220.00   24.74755003
3222.00   24.34329778
3224.00   26.87076226
3226.00   26.90502447
3228.00   26.71198618
3230.00   27.21860722
3232.00   29.68047211
3234.00   29.43123545
3236.00   28.33484484
3238.00   27.66171783
3240.00   27.59549149
3242.00   27.63434985
3244.00   27.06317380
3246.00   26.01650517
3248.00   27.58713486
3250.00   27.18162911
3252.00   26.11950071
3254.00   25.72214268
3256.00   26.74374140
3258.00   26.93594402
3260.00   26.91484351
3262.00   27.34353893
3264.00   26.45209481
3266.00   25.77604298
3268.00   25.88802189
3270.00   26.59227737
3272.00   26.88810228
3274.00   26.57472844
3276.00   25.76204561
3278.00   25.06572894
3280.00   25.98495887
3282.00   26.24317891
3284.00   25.20256885
3286.00   24.99260837
3288.00   24.80688214
3290.00   25.26210988
3292.00   26.33050576
3294.00   26.50766644
3296.00   27.26916487
3298.00   27.91722197
3300.00   27.43191035
3302.00   26.69757098
3304.00   26.24798398
3306.00   26.46128711
3308.00   27.53218998
3310.00   27.97676300
3312.00   27.48079667
3314.00   26.29895946
3316.00   25.59909121
3318.00   25.74951066
3320.00   26.58433857
3322.00   27.50022585
3324.00   27.58170305
3326.00   27.72104995
3328.00   27.44569880
3330.00   26.51205367
3332.00   26.61337788
3334.00   26.71094160
3336.00   26.62507717
3338.00   26.36497688
3340.00   26.64743117
3342.00   27.40036405
3344.00   28.04674983
3346.00   27.91743089
3348.00   27.97112227
3350.00   28.06032936
3352.00   28.07746046
3354.00   27.92014679
3356.00   27.88128844
3358.00   28.01060738
3360.00   28.28512286
3362.00   28.10232145
3364.00   27.94500779
3366.00   28.02502257
3368.00   28.42238060
3370.00   28.20239217
3372.00   27.99514760
3374.00   28.16060899
3376.00   28.86193964
3378.00   29.06918421
3380.00   28.92377875
3382.00   28.65323267
3384.00   28.33233785
3386.00   28.41485963
3388.00   28.80135403
3390.00   29.25992442
3392.00   29.74836978
3394.00   29.84488892
3396.00   29.82316167
3398.00   29.89962489
3400.00   30.35318129
3402.00   30.17226013
3404.00   29.97107412
3406.00   30.04544818
3408.00   30.16306783
3410.00   30.36592516
3412.00   30.32038150
3414.00   29.89523765
3416.00   29.93242468
3418.00   30.31829234
3420.00   30.69099829
3422.00   30.77769839
3424.00   30.54350367
3426.00   30.44405971
3428.00   30.46035515
3430.00   30.43173367
3432.00   30.60032880
3434.00   30.53807186
3436.00   30.27379325
3438.00   30.38514542
3440.00   30.49127470
3442.00   30.59907530
3444.00   30.78145888
3446.00   30.69099829
3448.00   30.67073345
3450.00   30.90680841
3452.00   31.39859643
3454.00   31.24817698
3456.00   31.12825926
3458.00   31.13055733
3460.00   31.28557293
3462.00   31.36140940
3464.00   31.33821973
3466.00   31.24462541
3468.00   31.05242279
3470.00   30.93772796
3472.00   30.90910649
3474.00   30.97136342
3476.00   31.09629513
3478.00   31.03988784
3480.00   30.90242118
3482.00   30.71314338
3484.00   30.44782019
3486.00   30.40875292
3488.00   30.38493651
3490.00   30.12943237
3492.00   29.90338537
3494.00   29.61988651
3496.00   29.43750293
3498.00   29.33910354
3500.00   29.23798825
3502.00   29.15379515
3504.00   29.16591227
3506.00   29.48388226
3508.00   29.39551084
3510.00   29.18178988
3512.00   28.98081279
3514.00   28.89160570
3516.00   29.14794550
3518.00   29.19787640
3520.00   28.91876477
3522.00   28.73659011
3524.00   28.92148067
3526.00   29.13018765
3528.00   29.14481176
3530.00   29.37399250
3532.00   29.46152826
3534.00   29.36584478
3536.00   29.05769384
3538.00   29.21082919
3540.00   29.37691732
3542.00   29.43290678
3544.00   29.45212704
3546.00   29.46090151
3548.00   29.38214022
3550.00   29.34265511
3552.00   29.59042936
3554.00   29.54112521
3556.00   29.41473110
3558.00   29.39070577
3560.00   29.44126342
3562.00   29.39237710
3564.00   29.34829584
3566.00   29.34035704
3568.00   29.44878439
3570.00   29.44126342
3572.00   29.37315684
3574.00   29.35456332
3576.00   29.48179310
3578.00   29.51271265
3580.00   29.42204315
3582.00   29.26598298
3584.00   29.03450417
3586.00   28.76228676
3588.00   28.55942943
3590.00   28.55232629
3592.00   28.32962195
3594.00   28.16457839
3596.00   28.18087383
3598.00   28.31019277
3600.00   28.35887017
3602.00   28.43909387
3604.00   28.54250724
3606.00   28.45497148
3608.00   28.33463593
3610.00   28.22077677
3612.00   28.20677940
3614.00   28.25775488
3616.00   28.27613948
3618.00   28.29849348
3620.00   28.40650299
3622.00   28.59410947
3624.00   28.59891453
3626.00   28.48589103
3628.00   28.69167319
3630.00   28.48735345
3632.00   28.46729752
3634.00   28.70984887
3636.00   28.66409629
3638.00   28.52746530
3640.00   28.46186571
3642.00   28.55399762
3644.00   28.58261909
3646.00   28.54731231
3648.00   28.52997229
3650.00   28.51910866
3652.00   28.19027504
3654.00   27.88692917
3656.00   27.68177376
3658.00   27.60301247
3660.00   27.44381856
3662.00   27.25140702
3664.00   27.02807593
3666.00   26.73851850
3668.00   26.56825205
3670.00   26.46504759
3672.00   26.36038073
3674.00   26.23670252
3676.00   26.34011589
3678.00   26.32465611
3680.00   26.09296839
3682.00   25.86608573
3684.00   25.77771430
3686.00   25.60849243
3688.00   25.24414311
3690.00   25.31977066
3692.00   25.21447705
3694.00   24.94330422
3696.00   24.69344081
3698.00   24.40430122
3700.00   24.09594136
3702.00   23.77191281
3704.00   23.46292620
3706.00   23.07225348
3708.00   22.63164986
3710.00   22.18937491
3712.00   21.90274230
3714.00   21.69549774
3716.00   21.50183270
3718.00   21.29458814
3720.00   21.13455856
3722.00   21.05078329
3724.00   20.96324753
3726.00   20.76793206
3728.00   20.63096680
3730.00   20.48441230
3732.00   20.34498183
3734.00   20.18831581
3736.00   19.93339663
3738.00   19.67849835
3740.00   19.47574548
3742.00   19.36412171
3744.00   19.21597945
3746.00   19.10581810
3748.00   19.00902737
3750.00   18.83205471
3752.00   18.65671161
3754.00   18.52189818
3756.00   18.45487796
3758.00   18.38194542
3760.00   18.26873390
3762.00   18.18456169
3764.00   18.15044572
3766.00   18.00293021
3768.00   18.00848737
3770.00   18.06194895
3772.00   18.00428816
3774.00   17.99269333
3776.00   17.98740776
3778.00   17.96651617
3780.00   17.88113224
3782.00   17.87735086
3784.00   17.90528292
3786.00   17.89249727
3788.00   17.73332425
3790.00   17.62544008
3792.00   17.55455492
3794.00   17.49350969
3796.00   17.28705901
3798.00   17.36699023
3800.00   17.54628185
3802.00   17.69993949
3804.00   17.86406381
3806.00   18.23871268
3808.00   18.64471983
3810.00   18.93931213
3812.00   19.35829296
3814.00   19.73129140
3816.00   20.08928967
3818.00   20.50563816
3820.00   21.09820720
3822.00   21.67084566
3824.00   22.14341341
3826.00   22.59488066
3828.00   23.11508124
3830.00   23.54168749
3832.00   23.86070206
3834.00   24.09259870
3836.00   24.45799260
3838.00   24.86516968
3840.00   25.26524362
3842.00   25.64171006
3844.00   26.04053050
3846.00   26.38357040
3848.00   26.63071790
3850.00   27.04625161
3852.00   27.39472332
3854.00   27.72021428
3856.00   28.16165357
3858.00   28.51555709
3860.00   28.99543690
3862.00   29.53527557
3864.00   29.93179794
3866.00   30.27128626
3868.00   30.61641532
3870.00   30.96467811
3872.00   31.18215956
3874.00   31.53042235
3876.00   31.85674898
3878.00   32.11183529
3880.00   32.59798257
3882.00   32.91866847
3884.00   33.11672074
3886.00   33.25439631
3888.00   33.53831301
3890.00   33.84124106
3892.00   34.09862544
3894.00   34.27557720
3896.00   34.56179197
3898.00   34.84341060
3900.00   35.09703449
3902.00   35.36277551
3904.00   35.65045270
3906.00   35.84474448
3908.00   35.93708530
3910.00   35.98994102
3912.00   36.01772684
3914.00   36.13242166
3916.00   36.35345468
3918.00   36.52852620
3920.00   36.73284594
3922.00   36.99378189
3924.00   37.27665401
3926.00   37.39093101
3928.00   37.09949334
3930.00   36.58367999
3932.00   36.14558336
3934.00   36.23270129
3936.00   36.31752114
3938.00   36.32838477
3940.00   36.37915133
3942.00   36.78235901
3944.00   37.33932878
3946.00   37.90632652
3948.00   38.31204118
3950.00   38.46496762
3952.00   38.47395100
3954.00   38.41482780
3956.00   38.32541180
3958.00   38.34985496
3960.00   38.32102457
3962.00   38.08620310
3964.00   37.57561266
3966.00   36.92546640
3968.00   36.42761982
3970.00   36.36473614
3972.00   36.18068123
3974.00   36.05219796
3976.00   36.09189198
3978.00   36.33569683
3980.00   36.38980604
3982.00   36.33695032
3984.00   36.28660159
3986.00   36.44057261
3988.00   36.22518032
3990.00   35.79230659
3992.00   35.38868108
3994.00   35.47224744
3996.00   35.44362596
3998.00   35.14905455
4000.00   34.56993969
4002.00   34.33365582
4004.00   34.36457537
4006.00   34.41158145
4008.00   34.23692776
4010.00   33.34214099
4012.00   33.08245853
4014.00   33.18148466
4016.00   32.93517282
4018.00   32.78767820
4020.00   32.75822106
4022.00   32.70097811
4024.00   32.19101441
4026.00   32.25348026
4028.00   32.28272849
4030.00   32.08091573
4032.00   31.83397715
4034.00   31.65598081
4036.00   31.52687078
4038.00   31.40590848
4040.00   31.04385724
4042.00   30.58967408
4044.00   30.40290328
4046.00   30.74698775
4048.00   30.83159869
4050.00   30.91307589
4052.00   30.99664225
4054.00   31.06453991
4056.00   30.83431460
4058.00   30.70436891
4060.00   30.66112332
4062.00   30.55624754
4064.00   30.59677723
4066.00   30.51216629
4068.00   30.29990774
4070.00   30.47100986
4072.00   30.55603863
4074.00   30.36989456
4076.00   29.88604535
4078.00   29.52733676
4080.00   29.31215339
4082.00   29.29293313
4084.00   29.46737790
4086.00   29.31089990
4088.00   28.84710661
4090.00   28.53812001
4092.00   28.91960043
4094.00   29.46675116
4096.00   29.22315522
4098.00   28.59034898
4100.00   28.83394491
4102.00   29.04202514
4104.00   29.05393335
4106.00   28.81451574
4108.00   28.47210259
4110.00   28.64759194
4112.00   28.71402719
4114.00   28.35531860
4116.00   28.16645863
4118.00   28.00099724
4120.00   27.88880941
4122.00   27.87272289
4124.00   27.96213889
4126.00   27.81151053
4128.00   27.48978005
4130.00   27.19562647
4132.00   26.91338110
4134.00   26.49826522
4136.00   26.05995968
4138.00   25.86587681
4140.00   25.86190741
4142.00   25.89428937
4144.00   25.94234003
4146.00   26.11427781
4148.00   26.33823565
4150.00   26.51226259
4152.00   26.63719429
4154.00   26.95140379
4156.00   27.36296811
4158.00   27.61805441
4160.00   27.58755269
4162.00   27.75865481
4164.00   27.98658205
4166.00   28.26924525
4168.00   28.57656053
4170.00   28.58011210
4172.00   28.69731392
4174.00   28.93756720
4176.00   29.17970072
4178.00   28.99982413
4180.00   29.07315361
4182.00   29.43416028
4184.00   29.54112521
4186.00   29.32949341
4188.00   29.20665087
4190.00   29.27099696
4192.00   29.29105289
4194.00   29.27225046
4196.00   29.20477062
4198.00   29.04348755
4200.00   28.80386102
4202.00   28.65803773
4204.00   28.55922051
4206.00   28.42279843
4208.00   28.31520675
4210.00   28.26130645
4212.00   28.25253198
4214.00   28.26569368
4216.00   28.30392529
4218.00   28.20385458
4220.00   27.99368519
4222.00   27.85747203
4224.00   27.86917132
4226.00   27.73734539
4228.00   27.42919444
4230.00   27.26707571
4232.00   27.35878979
4234.00   27.43671542
4236.00   27.36484835
4238.00   27.35858087
4240.00   27.34353893
4242.00   27.33455554
4244.00   27.38720235
4246.00   27.43399951
4248.00   27.43107469
4250.00   27.37759222
4252.00   27.29402586
4254.00   27.17473488
4256.00   27.05105668
4258.00   26.99109781
4260.00   27.01783905
4262.00   27.17034765
4264.00   27.27271644
4266.00   27.29987551
4268.00   27.35147773
4270.00   27.35482039
4272.00   27.42794095
4274.00   27.58692594
4276.00   27.49709211
4278.00   27.33079506
4280.00   27.17849537
4282.00   27.11101554
4284.00   27.13441412
4286.00   27.31094805
4288.00   27.44256506
4290.00   27.27229861
4292.00   26.95432862
4294.00   26.83650005
4296.00   26.84673693
4298.00   26.65766805
4300.00   26.44728974
4302.00   26.45021457
4304.00   26.60878173
4306.00   26.44332034
4308.00   26.30230211
4310.00   26.20014224
4312.00   26.14436170
4314.00   25.99561358
4316.00   25.76204561
4318.00   25.62269871
4320.00   25.71357712
4322.00   25.51803185
4324.00   25.25417107
4326.00   25.03251131
4328.00   24.90925093
4330.00   24.74065581
4332.00   24.58877395
4334.00   24.47282563
4336.00   24.38173830
4338.00   24.07400519
4340.00   23.90561898
4342.00   23.90603681
4344.00   23.78841716
4346.00   23.64760785
4348.00   23.57782994
4350.00   23.63465506
4352.00   23.75875111
4354.00   23.73430795
4356.00   23.56132559
4358.00   23.32316147
4360.00   23.35846825
4362.00   23.48507128
4364.00   23.56571282
4366.00   23.48047513
4368.00   23.37288345
4370.00   23.41926278
4372.00   23.55589377
4374.00   23.61000299
4376.00   23.53667351
4378.00   23.54816388
4380.00   23.69753875
4382.00   23.90415657
4384.00   23.90749922
4386.00   23.82393286
4388.00   23.74893206
4390.00   23.86926761
4392.00   23.95262505
4394.00   23.91397561
4396.00   23.73702385
4398.00   23.82476853
4400.00   23.95032698
4402.00   24.04350347
4404.00   24.02323863
4406.00   24.08424207
4408.00   24.15213973
4410.00   24.20792028
4412.00   24.25137478
4414.00   24.37881348
4416.00   24.48201793
4418.00   24.49977578
4420.00   24.41996991
4422.00   24.41224002
4424.00   24.46029068
4426.00   24.53299341
4428.00   24.56537537
4430.00   24.61405277
4432.00   24.69699238
4434.00   24.80771781
4436.00   24.86161811
4438.00   24.88188295
4440.00   24.94267748
4442.00   25.12297189
4444.00   25.35110805
4446.00   25.52450824
4448.00   25.65633417
4450.00   25.80278421
4452.00   26.00292564
4454.00   26.11887396
4456.00   26.15815015
4458.00   26.20891671
4460.00   26.28412643
4462.00   26.39192703
4464.00   26.51539632
4466.00   26.59457545
4468.00   26.60397666
4470.00   26.64116369
4472.00   26.72473005
4474.00   26.78364433
4476.00   26.76713998
4478.00   26.76546865
4480.00   26.83232173
4482.00   26.95767127
4484.00   27.05251909
4486.00   27.11038879
4488.00   27.15279872
4490.00   27.44131157
4492.00   27.71269331
4494.00   27.96965986
4496.00   28.32690604
4498.00   28.37140512
4500.00   28.50949853
4502.00   28.80720368
4504.00   28.93046406
4506.00   29.11034064
4508.00   29.35790597
4510.00   29.61341011
4512.00   29.60338215
4514.00   29.62866097
4516.00   29.66501234
4518.00   29.67942754
4520.00   29.71974830
4522.00   29.75944232
4524.00   29.80080767
4526.00   29.86055762
4528.00   30.00241151
4530.00   30.24454503
4532.00   30.53117763
4534.00   30.77811622
4536.00   30.72129110
4538.00   30.78542828
4540.00   31.07582137
4542.00   31.42617332
4544.00   31.54692671
4546.00   31.67227625
4548.00   31.87784949
4550.00   31.88035648
4552.00   31.88641504
4554.00   31.99776721
4556.00   32.25118219
4558.00   32.45403952
4560.00   32.38363486
4562.00   32.23321542
4564.00   32.24428796
4566.00   32.28419090
4568.00   32.26037449
4570.00   32.19017875
4572.00   32.13648736
4574.00   32.15905028
4576.00   32.13168230
4578.00   32.00904867
4580.00   31.77715203
4582.00   31.71573075
4584.00   31.72889245
4586.00   31.75626044
4588.00   31.72450522
4590.00   31.79553662
4592.00   31.81120532
4594.00   31.70173339
4596.00   31.79971494
4598.00   31.91608109
4600.00   31.93112304
4602.00   31.75563369
4604.00   31.68272204
4606.00   31.78592649
4608.00   31.90166590
4610.00   31.76858647
4612.00   31.61357088
4614.00   31.61210847
4616.00   31.69170542
4618.00   31.61252630
4620.00   31.43975286
4622.00   31.36642338
4624.00   31.43724587
4626.00   31.44810949
4628.00   31.32338670
4630.00   31.21746635
4632.00   31.23459745
4634.00   31.23355287
4636.00   31.06453991
4638.00   30.84434256
4640.00   30.72212676
4642.00   30.67115128
4644.00   30.56794683
4646.00   30.38827916
4648.00   30.15659144
4650.00   30.05777422
4652.00   29.89147717
4654.00   29.67566705
4656.00   29.60547131
4658.00   29.62761639
4660.00   29.43060871
4662.00   29.00880752
4664.00   28.82579719
4666.00   28.60852466
4668.00   28.34194798
4670.00   28.06638792
4672.00   28.00141508
4674.00   27.73421165
4676.00   27.35711846
4678.00   27.01491423
4680.00   26.94827006
4682.00   26.78928506
4684.00   26.56532722
4686.00   26.39067354
4688.00   26.24401458
4690.00   26.09568429
4692.00   25.93210315
4694.00   25.74366101
4696.00   25.59637531
4698.00   25.42046812
4700.00   25.23474190
4702.00   25.23808455
4704.00   25.03648071
4706.00   24.78055874
4708.00   24.53800739
4710.00   24.27351987
4712.00   24.15673588
4714.00   24.07442302
4716.00   23.92567490
4718.00   23.69628525
4720.00   23.50596287
4722.00   23.33026461
4724.00   23.12009522
4726.00   22.95212684
4728.00   22.80108065
4730.00   22.63499251
4732.00   22.39118766
4734.00   22.29905576
4736.00   22.19209082
4738.00   22.00949833
4740.00   21.73686309
4742.00   21.70489895
4744.00   21.70134738
4746.00   21.60566390
4748.00   21.41011863
4750.00   21.26513100
4752.00   21.16882077
4754.00   21.08838815
4756.00   20.87046798
4758.00   20.68369717
4760.00   20.58143284
4762.00   20.59043712
4764.00   20.57468486
4766.00   20.58205959
4768.00   20.61134960
4770.00   20.65515926
4772.00   20.67694919
4774.00   20.76252114
4776.00   20.90349758
4778.00   21.03072736
4780.00   21.04827630
4782.00   21.03239869
4784.00   21.03887508
4786.00   21.10823516
4788.00   21.17404367
4790.00   21.20517214
4792.00   21.19389068
4794.00   21.21352877
4796.00   21.25029797
4798.00   21.26032593
4800.00   21.19430851
4802.00   21.12390385
4804.00   21.10008744
4806.00   21.05705077
4808.00   20.89346962
4810.00   20.73887186
4812.00   20.66518722
4814.00   20.66180279
4816.00   20.66516633
4818.00   20.59471989
4820.00   20.44676566
4822.00   20.26475813
4824.00   20.23849740
4826.00   20.15936006
4828.00   20.07844694
4830.00   20.02730433
4832.00   20.09114902
4834.00   20.14947834
4836.00   20.18733390
4838.00   20.19721562
4840.00   20.18731301
4842.00   20.16562754
4844.00   20.17273068
4846.00   20.26379712
4848.00   20.33984250
4850.00   20.34573393
4852.00   20.31556648
