# File created by shivutils (I.Shivvers)
# Blotched regions marked with a #.
# wl(A)   flm    er(optional)
3450.00   0.52847475
3451.00   0.55745542
3452.00   0.60940605
3453.00   0.58804506
3454.00   0.53572094
3455.00   0.57236075
3456.00   0.55660200
3457.00   0.61240184
3458.00   0.59148651
3459.00   0.63626730
3460.00   0.56824452
3461.00   0.44690052
3462.00   0.52674484
3463.00   0.44350716
3464.00   0.47090036
3465.00   0.43748924
3466.00   0.49080867
3467.00   0.55223513
3468.00   0.49295628
3469.00   0.58210945
3470.00   0.61261541
3471.00   0.44178557
3472.00   0.45688966
3473.00   0.51645803
3474.00   0.48982912
3475.00   0.47928804
3476.00   0.40936539
3477.00   0.38162574
3478.00   0.46236628
3479.00   0.50483358
3480.00   0.47691640
3481.00   0.41925138
3482.00   0.62484407
3483.00   0.65744650
3484.00   0.48887965
3485.00   0.48218462
3486.00   0.49512285
3487.00   0.57110083
3488.00   0.57860714
3489.00   0.51769620
3490.00   0.56259900
3491.00   0.52065510
3492.00   0.50776094
3493.00   0.58947802
3494.00   0.60703921
3495.00   0.58211052
3496.00   0.60670424
3497.00   0.64012402
3498.00   0.65445173
3499.00   0.50748152
3500.00   0.51150763
3501.00   0.58454037
3502.00   0.60805887
3503.00   0.54147625
3504.00   0.62725085
3505.00   0.70060205
3506.00   0.57629436
3507.00   0.40313208
3508.00   0.44975588
3509.00   0.57407886
3510.00   0.58266324
3511.00   0.59310675
3512.00   0.58195829
3513.00   0.55500549
3514.00   0.55576909
3515.00   0.57174534
3516.00   0.58420676
3517.00   0.56225264
3518.00   0.46831554
3519.00   0.61574626
3520.00   0.56614858
3521.00   0.49196014
3522.00   0.58593243
3523.00   0.52096683
3524.00   0.60138935
3525.00   0.65435231
3526.00   0.56285536
3527.00   0.40636396
3528.00   0.41613698
3529.00   0.61332738
3530.00   0.53048438
3531.00   0.50998825
3532.00   0.64908981
3533.00   0.60485077
3534.00   0.50277388
3535.00   0.51583529
3536.00   0.55440021
3537.00   0.55634958
3538.00   0.55001593
3539.00   0.46568257
3540.00   0.38502318
3541.00   0.48810530
3542.00   0.55777329
3543.00   0.55723256
3544.00   0.61308050
3545.00   0.55961555
3546.00   0.49268258
3547.00   0.46221599
3548.00   0.54638141
3549.00   0.51499760
3550.00   0.48104516
3551.00   0.50135660
3552.00   0.39413789
3553.00   0.42282283
3554.00   0.50894290
3555.00   0.59394932
3556.00   0.64420682
3557.00   0.55562460
3558.00   0.51805627
3559.00   0.48393705
3560.00   0.48959491
3561.00   0.60620648
3562.00   0.47779876
3563.00   0.54230541
3564.00   0.55780762
3565.00   0.54772246
3566.00   0.42227250
3567.00   0.47801128
3568.00   0.46874103
3569.00   0.56075943
3570.00   0.53149676
3571.00   0.46510297
3572.00   0.55550867
3573.00   0.57767874
3574.00   0.52525723
3575.00   0.52273726
3576.00   0.48477623
3577.00   0.64818096
3578.00   0.56593287
3579.00   0.51237339
3580.00   0.50591022
3581.00   0.51094908
3582.00   0.57127994
3583.00   0.53429359
3584.00   0.44210455
3585.00   0.53585577
3586.00   0.53911412
3587.00   0.48513782
3588.00   0.57281768
3589.00   0.60244566
3590.00   0.49784020
3591.00   0.46440288
3592.00   0.52561492
3593.00   0.50368661
3594.00   0.53525090
3595.00   0.55711180
3596.00   0.60620338
3597.00   0.61793804
3598.00   0.56702286
3599.00   0.52876407
3600.00   0.52185613
3601.00   0.55353826
3602.00   0.58548975
3603.00   0.61338234
3604.00   0.64358151
3605.00   0.58870035
3606.00   0.54814857
3607.00   0.54956198
3608.00   0.57952589
3609.00   0.64117998
3610.00   0.60078192
3611.00   0.63938975
3612.00   0.62081164
3613.00   0.62589872
3614.00   0.62194455
3615.00   0.58939314
3616.00   0.53352904
3617.00   0.57113117
3618.00   0.60233802
3619.00   0.62480360
3620.00   0.65753871
3621.00   0.72160906
3622.00   0.57145000
3623.00   0.65907902
3624.00   0.66262990
3625.00   0.57746851
3626.00   0.54684210
3627.00   0.67435426
3628.00   0.70709860
3629.00   0.69979441
3630.00   0.68793875
3631.00   0.59713352
3632.00   0.60350490
3633.00   0.68525040
3634.00   0.58977920
3635.00   0.58902246
3636.00   0.63772959
3637.00   0.55184180
3638.00   0.49920583
3639.00   0.55102485
3640.00   0.58618969
3641.00   0.61300218
3642.00   0.63631064
3643.00   0.59057522
3644.00   0.60124433
3645.00   0.54271811
3646.00   0.50785464
3647.00   0.56139588
3648.00   0.62122434
3649.00   0.68686837
3650.00   0.69866616
3651.00   0.68894523
3652.00   0.63823539
3653.00   0.65367597
3654.00   0.60112721
3655.00   0.60765094
3656.00   0.62049681
3657.00   0.60000360
3658.00   0.56375891
3659.00   0.56162423
3660.00   0.58382165
3661.00   0.56240875
3662.00   0.45753446
3663.00   0.62998188
3664.00   0.58549112
3665.00   0.53925329
3666.00   0.52131027
3667.00   0.57191044
3668.00   0.51132107
3669.00   0.47208199
3670.00   0.52283454
3671.00   0.55115885
3672.00   0.55125666
3673.00   0.60844475
3674.00   0.63720560
3675.00   0.58363396
3676.00   0.53809673
3677.00   0.53393596
3678.00   0.59135598
3679.00   0.61717027
3680.00   0.54596090
3681.00   0.53402853
3682.00   0.56333089
3683.00   0.59988362
3684.00   0.55312032
3685.00   0.54672438
3686.00   0.62338513
3687.00   0.58717412
3688.00   0.51378882
3689.00   0.53357106
3690.00   0.57115632
3691.00   0.59354556
3692.00   0.56133491
3693.00   0.55535376
3694.00   0.60795963
3695.00   0.57095140
3696.00   0.56106508
3697.00   0.54416239
3698.00   0.59114730
3699.00   0.60304838
3700.00   0.60082638
3701.00   0.58329886
3702.00   0.54837185
3703.00   0.53889704
3704.00   0.51969928
3705.00   0.54103494
3706.00   0.52658504
3707.00   0.53109378
3708.00   0.58504516
3709.00   0.56338769
3710.00   0.62126648
3711.00   0.65014297
3712.00   0.61480987
3713.00   0.55727810
3714.00   0.53935915
3715.00   0.60732871
3716.00   0.57065570
3717.00   0.55698985
3718.00   0.50341690
3719.00   0.56581098
3720.00   0.53985274
3721.00   0.56810194
3722.00   0.54347330
3723.00   0.60993505
3724.00   0.61550778
3725.00   0.55649930
3726.00   0.56927139
3727.00   0.53791112
3728.00   0.53096122
3729.00   0.61398315
3730.00   0.62475657
3731.00   0.58709514
3732.00   0.62734038
3733.00   0.63446665
3734.00   0.62127441
3735.00   0.65561926
3736.00   0.62782609
3737.00   0.58288586
3738.00   0.60974091
3739.00   0.68037176
3740.00   0.70603305
3741.00   0.67227840
3742.00   0.67050904
3743.00   0.66024190
3744.00   0.63108528
3745.00   0.62600493
3746.00   0.62101609
3747.00   0.61643142
3748.00   0.59179276
3749.00   0.60759783
3750.00   0.63618940
3751.00   0.66682971
3752.00   0.63032860
3753.00   0.58914763
3754.00   0.62347835
3755.00   0.68878287
3756.00   0.66254860
3757.00   0.57694620
3758.00   0.57224381
3759.00   0.55612671
3760.00   0.65085328
3761.00   0.55873096
3762.00   0.63940638
3763.00   0.74236560
3764.00   0.67567229
3765.00   0.64026803
3766.00   0.63167506
3767.00   0.58835959
3768.00   0.57838792
3769.00   0.63628989
3770.00   0.61019659
3771.00   0.60654932
3772.00   0.59335589
3773.00   0.53825605
3774.00   0.62039995
3775.00   0.63685358
3776.00   0.59616017
3777.00   0.63367951
3778.00   0.66288638
3779.00   0.57535821
3780.00   0.59263521
3781.00   0.53558111
3782.00   0.57394266
3783.00   0.64138103
3784.00   0.58336270
3785.00   0.54627603
3786.00   0.53505641
3787.00   0.56311047
3788.00   0.60001969
3789.00   0.62073779
3790.00   0.61598682
3791.00   0.61203849
3792.00   0.62037498
3793.00   0.60735780
3794.00   0.60430855
3795.00   0.55572152
3796.00   0.55956286
3797.00   0.56250060
3798.00   0.52919161
3799.00   0.54041266
3800.00   0.61944020
3801.00   0.60528517
3802.00   0.59705907
3803.00   0.53194541
3804.00   0.58143044
3805.00   0.56049258
3806.00   0.54817933
3807.00   0.48926118
3808.00   0.48112893
3809.00   0.54049790
3810.00   0.56283849
3811.00   0.53913999
3812.00   0.54073417
3813.00   0.53885299
3814.00   0.54709029
3815.00   0.53584105
3816.00   0.49697292
3817.00   0.51545137
3818.00   0.54523188
3819.00   0.61110383
3820.00   0.57342035
3821.00   0.51981932
3822.00   0.48441175
3823.00   0.56023365
3824.00   0.54930371
3825.00   0.53235120
3826.00   0.56375110
3827.00   0.56307232
3828.00   0.52931887
3829.00   0.51962811
3830.00   0.55467457
3831.00   0.59605622
3832.00   0.60269201
3833.00   0.59015077
3834.00   0.59017444
3835.00   0.59177113
3836.00   0.61551529
3837.00   0.58228886
3838.00   0.58915377
3839.00   0.58097655
3840.00   0.53849113
3841.00   0.59559131
3842.00   0.66284662
3843.00   0.68716681
3844.00   0.64474458
3845.00   0.60429877
3846.00   0.60998529
3847.00   0.62205923
3848.00   0.58651340
3849.00   0.56609046
3850.00   0.56098896
3851.00   0.59456444
3852.00   0.63242352
3853.00   0.61925519
3854.00   0.62920344
3855.00   0.63478261
3856.00   0.60411292
3857.00   0.60060161
3858.00   0.63668257
3859.00   0.66388756
3860.00   0.67117620
3861.00   0.59928972
3862.00   0.63441080
3863.00   0.64968675
3864.00   0.63709241
3865.00   0.66335750
3866.00   0.63239449
3867.00   0.71163398
3868.00   0.68962854
3869.00   0.63837367
3870.00   0.64998329
3871.00   0.62411731
3872.00   0.61399025
3873.00   0.63581681
3874.00   0.66104907
3875.00   0.67168635
3876.00   0.64015090
3877.00   0.62328231
3878.00   0.62374467
3879.00   0.61804318
3880.00   0.63276374
3881.00   0.61510342
3882.00   0.59105206
3883.00   0.55644745
3884.00   0.56462866
3885.00   0.60815680
3886.00   0.61504596
3887.00   0.58140463
3888.00   0.53885961
3889.00   0.50888228
3890.00   0.53425485
3891.00   0.57064706
3892.00   0.56334901
3893.00   0.57832164
3894.00   0.59335047
3895.00   0.58152747
3896.00   0.58199656
3897.00   0.58244962
3898.00   0.61136401
3899.00   0.64480919
3900.00   0.64657515
3901.00   0.61548305
3902.00   0.62536520
3903.00   0.67994297
3904.00   0.63309050
3905.00   0.60670984
3906.00   0.69374681
3907.00   0.66012961
3908.00   0.60884094
3909.00   0.65233666
3910.00   0.62982702
3911.00   0.57014483
3912.00   0.61480588
3913.00   0.57610554
3914.00   0.63495910
3915.00   0.62326264
3916.00   0.59592915
3917.00   0.62241334
3918.00   0.60182351
3919.00   0.58793950
3920.00   0.57665712
3921.00   0.60123390
3922.00   0.64691091
3923.00   0.59450513
3924.00   0.61409616
3925.00   0.58112729
3926.00   0.59488410
3927.00   0.60781658
3928.00   0.57004678
3929.00   0.53454053
3930.00   0.59051841
#3931.00   0.58013892
#3932.00   0.50715315
#3933.00   0.43360290
#3934.00   0.50051332
#3935.00   0.62880564
3936.00   0.59389055
3937.00   0.57153523
3938.00   0.62336230
3939.00   0.61056089
3940.00   0.63129658
3941.00   0.64181530
3942.00   0.61764675
3943.00   0.65301567
3944.00   0.66097260
3945.00   0.66824245
3946.00   0.65680969
3947.00   0.63576251
3948.00   0.67808324
3949.00   0.64191383
3950.00   0.61932129
3951.00   0.59823984
3952.00   0.61016303
3953.00   0.62938833
3954.00   0.60151190
3955.00   0.58397418
3956.00   0.62045789
3957.00   0.62852746
3958.00   0.65868902
3959.00   0.64757097
3960.00   0.62504393
3961.00   0.57344890
3962.00   0.59840435
3963.00   0.66206050
3964.00   0.58464938
3965.00   0.53298694
3966.00   0.64088899
3967.00   0.58868104
3968.00   0.56740391
3969.00   0.58216125
3970.00   0.60365641
3971.00   0.64234281
3972.00   0.64721489
3973.00   0.61426818
3974.00   0.63549656
3975.00   0.64760220
3976.00   0.63584656
3977.00   0.66428280
3978.00   0.64848536
3979.00   0.66356766
3980.00   0.62294495
3981.00   0.62082571
3982.00   0.65999442
3983.00   0.66199368
3984.00   0.63311273
3985.00   0.59727055
3986.00   0.59032077
3987.00   0.58353525
3988.00   0.59684891
3989.00   0.64028746
3990.00   0.65834951
3991.00   0.62374842
3992.00   0.63124615
3993.00   0.63956660
3994.00   0.59489763
3995.00   0.63533765
3996.00   0.66448259
3997.00   0.62748361
3998.00   0.58750767
3999.00   0.58748150
4000.00   0.60944009
4001.00   0.67687935
4002.00   0.63913101
4003.00   0.63608992
4004.00   0.67304105
4005.00   0.62938142
4006.00   0.61083299
4007.00   0.67806804
4008.00   0.65883750
4009.00   0.67029697
4010.00   0.70277828
4011.00   0.62116957
4012.00   0.60311121
4013.00   0.67152292
4014.00   0.68734509
4015.00   0.65240705
4016.00   0.68260384
4017.00   0.66043526
4018.00   0.69101417
4019.00   0.65618974
4020.00   0.61053914
4021.00   0.68662065
4022.00   0.69248283
4023.00   0.65354389
4024.00   0.59331125
4025.00   0.63221431
4026.00   0.67973822
4027.00   0.67460215
4028.00   0.65983343
4029.00   0.62549824
4030.00   0.63349998
4031.00   0.62705421
4032.00   0.68052322
4033.00   0.70397907
4034.00   0.68167281
4035.00   0.70026773
4036.00   0.71711773
4037.00   0.69237131
4038.00   0.68846506
4039.00   0.71129590
4040.00   0.69300354
4041.00   0.72457451
4042.00   0.76355571
4043.00   0.74133736
4044.00   0.75023186
4045.00   0.76171827
4046.00   0.75767136
4047.00   0.66058564
4048.00   0.62702751
4049.00   0.74613178
4050.00   0.70574450
4051.00   0.64457768
4052.00   0.72675878
4053.00   0.71007568
4054.00   0.72904897
4055.00   0.73589760
4056.00   0.68649340
4057.00   0.69797307
4058.00   0.72327518
4059.00   0.64882553
4060.00   0.69650233
4061.00   0.67610836
4062.00   0.66573858
4063.00   0.66019350
4064.00   0.65508687
4065.00   0.65682286
4066.00   0.69579476
4067.00   0.64484245
4068.00   0.63057309
4069.00   0.64022475
4070.00   0.64379561
4071.00   0.67390424
4072.00   0.67106330
4073.00   0.64217395
4074.00   0.63641953
4075.00   0.59679186
4076.00   0.63004076
4077.00   0.62609565
4078.00   0.63711840
4079.00   0.61934328
4080.00   0.62333822
4081.00   0.68454397
4082.00   0.66202050
4083.00   0.63868624
4084.00   0.64347261
4085.00   0.63055730
4086.00   0.61126834
4087.00   0.61596644
4088.00   0.59159958
4089.00   0.58655971
4090.00   0.60242158
4091.00   0.61149102
4092.00   0.63336259
4093.00   0.64231473
4094.00   0.61993480
4095.00   0.55512595
4096.00   0.56374842
4097.00   0.61350226
4098.00   0.59247911
4099.00   0.59772384
4100.00   0.60742116
4101.00   0.62562925
4102.00   0.61599976
4103.00   0.58728695
4104.00   0.59690964
4105.00   0.59640843
4106.00   0.60229409
4107.00   0.63106322
4108.00   0.62632853
4109.00   0.60454208
4110.00   0.64981091
4111.00   0.68895429
4112.00   0.67946237
4113.00   0.62258583
4114.00   0.61837375
4115.00   0.62201142
4116.00   0.61473894
4117.00   0.63662910
4118.00   0.63787520
4119.00   0.59105480
4120.00   0.64658022
4121.00   0.66273677
4122.00   0.66281080
4123.00   0.59648597
4124.00   0.64216298
4125.00   0.64191169
4126.00   0.60666829
4127.00   0.60613769
4128.00   0.66278887
4129.00   0.67731416
4130.00   0.65139312
4131.00   0.65873176
4132.00   0.63301194
4133.00   0.66619813
4134.00   0.65203309
4135.00   0.64013213
4136.00   0.66153502
4137.00   0.66208965
4138.00   0.66182846
4139.00   0.61629730
4140.00   0.60762280
4141.00   0.68161136
4142.00   0.70096087
4143.00   0.65219259
4144.00   0.63880920
4145.00   0.66768897
4146.00   0.68946832
4147.00   0.70278150
4148.00   0.67555159
4149.00   0.64131939
4150.00   0.65218556
4151.00   0.67505395
4152.00   0.67027962
4153.00   0.66711485
4154.00   0.65888178
4155.00   0.71600741
4156.00   0.73730230
4157.00   0.69747251
4158.00   0.71941829
4159.00   0.72309011
4160.00   0.68824893
4161.00   0.65511137
4162.00   0.65530241
4163.00   0.72465295
4164.00   0.69149834
4165.00   0.63498569
4166.00   0.70769644
4167.00   0.65337670
4168.00   0.71614796
4169.00   0.73136824
4170.00   0.72069311
4171.00   0.69692475
4172.00   0.65611696
4173.00   0.66330510
4174.00   0.64715493
4175.00   0.70223397
4176.00   0.68501550
4177.00   0.64116561
4178.00   0.64078528
4179.00   0.65654659
4180.00   0.68457538
4181.00   0.68713146
4182.00   0.66840333
4183.00   0.69502091
4184.00   0.68240058
4185.00   0.70596117
4186.00   0.69433343
4187.00   0.64930481
4188.00   0.61832660
4189.00   0.61755508
4190.00   0.62735009
4191.00   0.63605356
4192.00   0.68054163
4193.00   0.69740319
4194.00   0.68211651
4195.00   0.67708427
4196.00   0.68319696
4197.00   0.68824607
4198.00   0.63662714
4199.00   0.62238163
4200.00   0.67528450
4201.00   0.67199653
4202.00   0.65015692
4203.00   0.66415489
4204.00   0.66786098
4205.00   0.65965039
4206.00   0.64828128
4207.00   0.63669801
4208.00   0.63120699
4209.00   0.66154861
4210.00   0.67850953
4211.00   0.67885041
4212.00   0.69348794
4213.00   0.69430411
4214.00   0.69480318
4215.00   0.66307265
4216.00   0.66189688
4217.00   0.69338149
4218.00   0.69240230
4219.00   0.66432941
4220.00   0.69216532
4221.00   0.71435034
4222.00   0.66164595
4223.00   0.63413936
4224.00   0.65515012
4225.00   0.66115791
4226.00   0.65901273
4227.00   0.66244870
4228.00   0.65303594
4229.00   0.64087069
4230.00   0.65397221
4231.00   0.61753654
4232.00   0.57356197
4233.00   0.61213237
4234.00   0.64467686
4235.00   0.61195821
4236.00   0.60102570
4237.00   0.64177680
4238.00   0.64509398
4239.00   0.61937809
4240.00   0.64505905
4241.00   0.67557544
4242.00   0.68026233
4243.00   0.65308344
4244.00   0.64479554
4245.00   0.66915858
4246.00   0.66110510
4247.00   0.70240104
4248.00   0.69586051
4249.00   0.61528319
4250.00   0.64570469
4251.00   0.69428879
4252.00   0.66154438
4253.00   0.65382677
4254.00   0.67835659
4255.00   0.69359857
4256.00   0.67554313
4257.00   0.66102713
4258.00   0.64878923
4259.00   0.66254503
4260.00   0.67947716
4261.00   0.67936277
4262.00   0.65966415
4263.00   0.69256920
4264.00   0.61367804
4265.00   0.62920690
4266.00   0.66452664
4267.00   0.66501194
4268.00   0.62701893
4269.00   0.63625318
4270.00   0.66601026
4271.00   0.70012254
4272.00   0.70342445
4273.00   0.67158717
4274.00   0.65796822
4275.00   0.66675895
4276.00   0.65557986
4277.00   0.68822134
4278.00   0.69630015
4279.00   0.67601484
4280.00   0.65926439
4281.00   0.71610510
4282.00   0.69400740
4283.00   0.66593045
4284.00   0.68849421
4285.00   0.71877253
4286.00   0.65467906
4287.00   0.61580145
4288.00   0.64695859
4289.00   0.67353302
4290.00   0.69696575
4291.00   0.69931358
4292.00   0.68959320
4293.00   0.66866243
4294.00   0.63459975
4295.00   0.65606755
4296.00   0.68917465
4297.00   0.68514329
4298.00   0.70003891
4299.00   0.69662178
4300.00   0.68884289
4301.00   0.67808115
4302.00   0.66732121
4303.00   0.68663877
4304.00   0.68182242
4305.00   0.66235751
4306.00   0.63803786
4307.00   0.65375811
4308.00   0.68248302
4309.00   0.70627528
4310.00   0.68304479
4311.00   0.71743554
4312.00   0.70134634
4313.00   0.65169877
4314.00   0.59029138
4315.00   0.67198020
4316.00   0.63914251
4317.00   0.63119346
4318.00   0.65379620
4319.00   0.70363843
4320.00   0.71639651
4321.00   0.70250499
4322.00   0.67141485
4323.00   0.64374316
4324.00   0.66191465
4325.00   0.68304378
4326.00   0.70852667
4327.00   0.70344186
4328.00   0.66781348
4329.00   0.68408966
4330.00   0.68893957
4331.00   0.64355332
4332.00   0.66288477
4333.00   0.68021411
4334.00   0.66060340
4335.00   0.66697150
4336.00   0.68279386
4337.00   0.65078479
4338.00   0.62462252
4339.00   0.63634926
4340.00   0.62511706
4341.00   0.65899265
4342.00   0.68002069
4343.00   0.64395475
4344.00   0.63477832
4345.00   0.67398769
4346.00   0.68140906
4347.00   0.63389003
4348.00   0.66933316
4349.00   0.65938896
4350.00   0.64079559
#4351.00   0.64048851
#4352.00   0.63921404
#4353.00   0.65880376
#4354.00   0.71036679
#4355.00   0.73851019
#4356.00   0.88839281
#4357.00   0.86531258
#4358.00   0.71661240
#4359.00   0.76640505
#4360.00   0.62114173
#4361.00   0.61208552
#4362.00   0.65305346
4363.00   0.62063581
4364.00   0.63717663
4365.00   0.66142666
4366.00   0.65520442
4367.00   0.66112000
4368.00   0.64552712
4369.00   0.65223491
4370.00   0.69019228
4371.00   0.72060162
4372.00   0.67557836
4373.00   0.63734066
4374.00   0.63602829
4375.00   0.66345882
4376.00   0.71362102
4377.00   0.69216818
4378.00   0.69814432
4379.00   0.69728440
4380.00   0.69656736
4381.00   0.70056391
4382.00   0.62515706
4383.00   0.61249888
4384.00   0.63458592
4385.00   0.66104150
4386.00   0.66533726
4387.00   0.65144449
4388.00   0.64907938
4389.00   0.66213971
4390.00   0.66968471
4391.00   0.69378269
4392.00   0.67769843
4393.00   0.64666557
4394.00   0.65464687
4395.00   0.66051352
