# File created by shivutils (I.Shivvers)
# Blotched regions marked with a #.
# wl(A)   flm    er(optional)
3460.00   0.89330643
3462.00   1.26828265
3464.00   1.01479554
3466.00   0.77604765
3468.00   0.94821960
3470.00   0.80219966
3472.00   0.98458999
3474.00   0.78695798
3476.00   0.89220017
3478.00   0.89479500
3480.00   1.02616858
3482.00   0.90874612
3484.00   0.81670296
3486.00   1.07390237
3488.00   1.02610207
3490.00   1.01451278
3492.00   1.09858811
3494.00   1.03500533
3496.00   1.13378537
3498.00   1.05314291
3500.00   1.05441189
3502.00   0.94050151
3504.00   1.01498985
3506.00   0.96935755
3508.00   0.99508691
3510.00   0.90978861
3512.00   1.16719711
3514.00   0.98435146
3516.00   1.00106907
3518.00   1.00753713
3520.00   1.02647197
3522.00   1.04564846
3524.00   0.91762888
3526.00   1.03788614
3528.00   0.91730583
3530.00   0.85891587
3532.00   0.98536235
3534.00   1.01052487
3536.00   0.89481026
3538.00   0.86135793
3540.00   0.95704746
3542.00   0.87500858
3544.00   0.87477028
3546.00   1.07656705
3548.00   1.04091787
3550.00   0.87867641
3552.00   1.06781876
3554.00   0.97901851
3556.00   1.07177341
3558.00   0.91201812
3560.00   0.86850774
3562.00   0.93746972
3564.00   0.95731324
3566.00   0.84415400
3568.00   0.99324745
3570.00   1.06075537
3572.00   1.00473416
3574.00   0.92778343
3576.00   1.03185296
3578.00   0.98508435
3580.00   1.02066648
3582.00   0.91553497
3584.00   0.91562271
3586.00   0.90754771
3588.00   0.95191950
3590.00   0.93935180
3592.00   0.99743617
3594.00   0.84102339
3596.00   1.10901034
3598.00   1.05566144
3600.00   1.03506470
3602.00   1.04828691
3604.00   1.02048254
3606.00   1.11279202
3608.00   1.06476307
3610.00   1.06192780
3612.00   1.04113770
3614.00   1.11562359
3616.00   1.15544271
3618.00   1.04235280
3620.00   1.12294376
3622.00   1.07581580
3624.00   0.96182257
3626.00   0.98720390
3628.00   1.16423321
3630.00   1.15140057
3632.00   1.00821185
3634.00   1.01188958
3636.00   1.06289697
3638.00   1.14277077
3640.00   1.08750689
3642.00   1.05730617
3644.00   1.09239614
3646.00   1.16594756
3648.00   1.01252604
3650.00   0.99300784
3652.00   1.01347864
3654.00   1.18384743
3656.00   1.08123493
3658.00   1.01018441
3660.00   1.08141327
3662.00   0.94290543
3664.00   0.96655375
3666.00   0.94207346
3668.00   1.05155146
3670.00   1.04179978
3672.00   1.01852715
3674.00   1.07528257
3676.00   0.98280954
3678.00   1.01477134
3680.00   0.93265176
3682.00   1.04058099
3684.00   1.06880176
3686.00   0.95994854
3688.00   1.12565732
3690.00   0.90589499
3692.00   0.96360052
3694.00   1.05062628
3696.00   1.00762272
3698.00   0.87321270
3700.00   0.98468095
3702.00   1.09860539
3704.00   0.96149385
3706.00   0.99338979
3708.00   0.92516679
3710.00   0.99638128
3712.00   1.04699850
3714.00   1.08254087
3716.00   1.02504241
3718.00   0.94563735
3720.00   1.15869462
3722.00   0.96387100
3724.00   0.97292280
3726.00   1.14707363
3728.00   1.06603682
3730.00   1.15222466
3732.00   1.22572327
3734.00   1.12981844
3736.00   1.08896732
3738.00   1.18923640
3740.00   1.14855492
3742.00   1.20383406
3744.00   1.17228961
3746.00   1.17179573
3748.00   1.26515675
3750.00   1.21965301
3752.00   1.30310535
3754.00   1.25226367
3756.00   1.14918292
3758.00   1.12209904
3760.00   1.20159936
3762.00   1.09256315
3764.00   1.17347419
3766.00   1.09709227
3768.00   1.13648057
3770.00   1.19120324
3772.00   1.06610107
3774.00   1.00111008
3776.00   1.02913964
3778.00   1.01892090
3780.00   0.99501801
3782.00   1.08563650
3784.00   1.01609218
3786.00   1.07530022
3788.00   1.04640865
3790.00   1.10303080
3792.00   0.99162310
3794.00   0.96169007
3796.00   1.06473339
3798.00   0.97276676
3800.00   0.95275331
3802.00   1.07457423
3804.00   0.94786191
3806.00   0.98643696
3808.00   1.03889251
3810.00   0.91936845
3812.00   0.89839262
3814.00   0.95279151
3816.00   0.81104887
3818.00   0.88225245
3820.00   0.91024643
3822.00   0.89675629
3824.00   0.93183774
3826.00   0.93541843
3828.00   1.11513150
3830.00   1.03335679
3832.00   1.06750965
3834.00   1.02293992
3836.00   0.98039567
3838.00   1.09998429
3840.00   1.01913929
3842.00   0.98431307
3844.00   1.08128047
3846.00   1.04384685
3848.00   1.07191086
3850.00   1.13303196
3852.00   1.14232981
3854.00   1.14867115
3856.00   1.15950429
3858.00   1.12112379
3860.00   1.11935234
3862.00   1.15847254
3864.00   1.06715429
3866.00   1.16515696
3868.00   1.16201794
3870.00   1.13316607
3872.00   1.18602228
3874.00   1.09593713
3876.00   1.16215551
3878.00   1.20101047
3880.00   1.08823526
3882.00   1.13200867
3884.00   1.07510960
3886.00   1.07975304
3888.00   0.94253057
3890.00   1.01015460
3892.00   0.96193129
3894.00   0.98155773
3896.00   1.04659307
3898.00   1.09747136
3900.00   1.09348190
3902.00   1.06911635
3904.00   1.03641450
3906.00   1.09006298
3908.00   1.14783382
3910.00   1.08481908
3912.00   1.11251795
3914.00   1.13167441
3916.00   1.04692531
3918.00   1.01170075
3920.00   1.01930153
3922.00   1.03922629
3924.00   1.09943449
3926.00   1.05956674
3928.00   0.99545848
3930.00   0.92382044
3932.00   0.90878665
3934.00   0.83698666
3936.00   0.99438620
3938.00   1.03705502
3940.00   1.13484073
3942.00   1.18049157
3944.00   1.08252752
3946.00   1.20587826
3948.00   1.08637583
3950.00   1.08514524
3952.00   1.00234175
3954.00   1.18927050
3956.00   1.15173090
3958.00   1.13802552
3960.00   1.12580562
3962.00   1.09700274
3964.00   1.06162453
3966.00   1.02820182
3968.00   0.94687003
3970.00   1.02211249
3972.00   1.09250963
3974.00   1.09750926
3976.00   1.04893923
3978.00   1.09772408
3980.00   1.09529436
3982.00   1.00831902
3984.00   1.07320464
3986.00   1.12041736
3988.00   1.09726965
3990.00   1.14087570
3992.00   1.11483288
3994.00   1.15563548
3996.00   1.18186986
3998.00   1.17681646
4000.00   1.13551652
4002.00   1.15852761
4004.00   1.18138433
4006.00   1.13560092
4008.00   1.13445175
4010.00   1.19229949
4012.00   1.13953817
4014.00   1.16993368
4016.00   1.10344589
4018.00   1.25116229
4020.00   1.14406466
4022.00   1.04030132
4024.00   1.15435529
4026.00   1.05578554
4028.00   1.26182711
4030.00   1.18489993
4032.00   1.22424793
4034.00   1.22467232
4036.00   1.22499621
4038.00   1.24588275
4040.00   1.23712146
4042.00   1.36529827
4044.00   1.28171182
4046.00   1.35726774
4048.00   1.22326982
4050.00   1.25432730
4052.00   1.26982689
4054.00   1.28248262
4056.00   1.20917952
4058.00   1.25693941
4060.00   1.20044410
4062.00   1.18146360
4064.00   1.18664873
4066.00   1.17136347
4068.00   1.11739683
4070.00   1.18053532
4072.00   1.18582654
4074.00   1.16846061
4076.00   1.11935568
4078.00   0.99186724
4080.00   1.17955315
4082.00   1.04739428
4084.00   1.02006710
4086.00   1.07588327
4088.00   1.10428953
4090.00   1.17011249
4092.00   1.08790827
4094.00   1.05053854
4096.00   1.06541622
4098.00   1.09653652
4100.00   1.08406770
4102.00   1.13427305
4104.00   1.07096279
4106.00   1.14249432
4108.00   1.10169172
4110.00   1.11542618
4112.00   1.09225881
4114.00   1.08716393
4116.00   1.15325272
4118.00   1.10484087
4120.00   1.06779861
4122.00   1.14965391
4124.00   1.11787236
4126.00   1.16217482
4128.00   1.13148725
4130.00   1.16710544
4132.00   1.15000570
4134.00   1.19718540
4136.00   1.17532229
4138.00   1.20095265
4140.00   1.21598160
4142.00   1.14033341
4144.00   1.24001575
4146.00   1.21989584
4148.00   1.25427318
4150.00   1.25508678
4152.00   1.23848093
4154.00   1.24748969
4156.00   1.23308074
4158.00   1.24833119
4160.00   1.38863397
4162.00   1.26947510
4164.00   1.21377707
4166.00   1.24928117
4168.00   1.27917337
4170.00   1.27764618
4172.00   1.33783340
4174.00   1.28019559
4176.00   1.23952651
4178.00   1.24089360
4180.00   1.26159191
4182.00   1.20343447
4184.00   1.17507923
4186.00   1.23844242
4188.00   1.09777880
4190.00   1.21548486
4192.00   1.15895963
4194.00   1.26571572
4196.00   1.22235107
4198.00   1.16953969
4200.00   1.26242089
4202.00   1.19463372
4204.00   1.17817485
4206.00   1.16590691
4208.00   1.17302728
4210.00   1.23436034
4212.00   1.21597517
4214.00   1.21314752
4216.00   1.20832813
4218.00   1.21824193
4220.00   1.17654729
4222.00   1.18799376
4224.00   1.19054008
4226.00   1.13783193
4228.00   1.18506753
4230.00   1.14117694
4232.00   1.12310398
4234.00   1.25362659
4236.00   1.19558477
4238.00   1.21980238
4240.00   1.14683855
4242.00   1.19697380
4244.00   1.14018118
4246.00   1.16463757
4248.00   1.23412764
4250.00   1.13005793
4252.00   1.18538046
4254.00   1.15434635
4256.00   1.19523215
4258.00   1.17578840
4260.00   1.22434831
4262.00   1.22216749
4264.00   1.18988919
4266.00   1.20835447
4268.00   1.22716975
4270.00   1.18022990
4272.00   1.17039967
4274.00   1.23637021
4276.00   1.15867245
4278.00   1.27885735
4280.00   1.28839540
4282.00   1.24136639
4284.00   1.13632691
4286.00   1.23486912
4288.00   1.23341095
4290.00   1.25318480
4292.00   1.16801548
4294.00   1.20820069
4296.00   1.19601214
4298.00   1.19346595
4300.00   1.25005567
4302.00   1.27267575
4304.00   1.29735780
4306.00   1.14147735
4308.00   1.15293050
4310.00   1.19457197
4312.00   1.22179675
4314.00   1.23226964
4316.00   1.26066637
4318.00   1.18542337
4320.00   1.25943482
4322.00   1.15090466
4324.00   1.20906734
4326.00   1.12675881
4328.00   1.25254464
4330.00   1.18303990
4332.00   1.18492627
4334.00   1.16790402
4336.00   1.16316509
4338.00   1.16866016
4340.00   1.14458883
4342.00   1.16814125
4344.00   1.16279733
4346.00   1.10851347
4348.00   1.13999701
4350.00   1.18481958
4352.00   1.20502830
#4354.00   1.21677566
#4356.00   1.24473453
#4358.00   1.28580999
#4360.00   0.90863889
#4362.00   1.05847025
#4364.00   1.11483598
#4366.00   1.13381708
#4368.00   1.23143411
4370.00   1.16664577
4372.00   1.18866670
4374.00   1.23385596
4376.00   1.17085719
4378.00   1.22578263
4380.00   1.15953195
4382.00   1.15369213
4384.00   1.19169664
4386.00   1.18878746
4388.00   1.15204799
4390.00   1.14078128
4392.00   1.22896683
4394.00   1.23687255
4396.00   1.16681111
4398.00   1.16994023
4400.00   1.19793749
4402.00   1.17323887
4404.00   1.17027187
4406.00   1.17055392
4408.00   1.16437292
4410.00   1.17676270
4412.00   1.11202002
4414.00   1.10217023
4416.00   1.13355243
4418.00   1.13282204
4420.00   1.09729874
4422.00   1.03497601
4424.00   1.01174498
4426.00   1.03103805
4428.00   1.06846285
4430.00   1.02060187
4432.00   1.00031495
4434.00   1.04316998
4436.00   1.12359571
4438.00   1.04449916
4440.00   1.06357825
4442.00   1.03045273
4444.00   1.09619236
4446.00   1.11374187
4448.00   1.11368930
4450.00   1.07171619
4452.00   1.10120201
4454.00   1.18059433
4456.00   1.18301344
4458.00   1.10397446
4460.00   1.14480877
4462.00   1.14945686
4464.00   1.15190768
4466.00   1.15633380
4468.00   1.11093104
4470.00   1.14265180
4472.00   1.10417962
4474.00   1.10614181
4476.00   1.10008442
4478.00   1.14569938
4480.00   1.18818855
4482.00   1.17547834
4484.00   1.24793804
4486.00   1.26252687
4488.00   1.25045693
4490.00   1.25126719
4492.00   1.31179035
4494.00   1.28272164
4496.00   1.32336259
4498.00   1.28260815
4500.00   1.25453603
4502.00   1.27054298
4504.00   1.23452961
4506.00   1.23814678
4508.00   1.24819577
4510.00   1.21410728
4512.00   1.25248694
4514.00   1.30098474
4516.00   1.29264665
4518.00   1.24172556
4520.00   1.21435094
4522.00   1.24331760
4524.00   1.24892139
4526.00   1.24530864
4528.00   1.22111654
4530.00   1.27933371
4532.00   1.19201684
4534.00   1.26748574
4536.00   1.24469805
4538.00   1.23834634
4540.00   1.25529802
4542.00   1.30917263
4544.00   1.28195655
4546.00   1.30734503
4548.00   1.37535918
4550.00   1.35982692
4552.00   1.34266222
4554.00   1.39589524
4556.00   1.34534264
4558.00   1.34026384
4560.00   1.37149668
4562.00   1.35504878
4564.00   1.35882962
4566.00   1.34103346
4568.00   1.26428771
4570.00   1.34299612
4572.00   1.30399489
4574.00   1.33674991
4576.00   1.35065401
4578.00   1.24473703
4580.00   1.34213150
4582.00   1.34670317
4584.00   1.33422673
4586.00   1.33669043
4588.00   1.29115641
4590.00   1.34624338
4592.00   1.34675169
4594.00   1.35387218
4596.00   1.31435931
4598.00   1.29039252
4600.00   1.32424068
4602.00   1.33972347
4604.00   1.32944179
4606.00   1.28945696
4608.00   1.33926153
4610.00   1.34342778
4612.00   1.31236541
4614.00   1.33558607
4616.00   1.37038505
4618.00   1.36166775
4620.00   1.33053553
4622.00   1.34180641
4624.00   1.30539000
4626.00   1.37767720
4628.00   1.31956756
4630.00   1.37598503
4632.00   1.36908627
4634.00   1.39060080
4636.00   1.43829858
4638.00   1.40790248
4640.00   1.34893000
4642.00   1.34550238
4644.00   1.29075205
4646.00   1.33918822
4648.00   1.35831821
4650.00   1.32399094
4652.00   1.38354504
4654.00   1.34236407
4656.00   1.30143845
4658.00   1.31972039
4660.00   1.33403015
4662.00   1.29933643
4664.00   1.31628752
4666.00   1.35128415
4668.00   1.34069586
4670.00   1.25306535
4672.00   1.27845705
4674.00   1.37279367
4676.00   1.32913494
4678.00   1.35022140
4680.00   1.40032864
4682.00   1.30549967
4684.00   1.30845177
4686.00   1.36439002
4688.00   1.33602130
4690.00   1.30049574
4692.00   1.33155048
4694.00   1.26942968
4696.00   1.31599152
4698.00   1.33462691
4700.00   1.30971336
4702.00   1.35553765
4704.00   1.32853591
4706.00   1.31209195
4708.00   1.30696511
4710.00   1.31579685
4712.00   1.32235122
4714.00   1.27378786
4716.00   1.30126739
4718.00   1.30843949
4720.00   1.31275034
4722.00   1.27286935
4724.00   1.24098802
4726.00   1.34815776
4728.00   1.33397555
4730.00   1.26839864
4732.00   1.29422903
4734.00   1.33382726
4736.00   1.26032710
4738.00   1.28236580
4740.00   1.25282824
4742.00   1.30203736
4744.00   1.33867145
4746.00   1.27533054
4748.00   1.23346293
4750.00   1.25004137
4752.00   1.22059870
4754.00   1.27881622
4756.00   1.17927885
4758.00   1.17988002
4760.00   1.18950582
4762.00   1.19726872
4764.00   1.23019278
4766.00   1.20005918
4768.00   1.19522738
4770.00   1.15920627
4772.00   1.15677571
4774.00   1.13043380
4776.00   1.15731025
4778.00   1.13330185
4780.00   1.13460720
4782.00   1.17005062
4784.00   1.15056229
4786.00   1.15660989
4788.00   1.15907753
4790.00   1.15047026
4792.00   1.13043475
4794.00   1.16989398
4796.00   1.19032705
4798.00   1.16675639
4800.00   1.11380172
4802.00   1.21158171
4804.00   1.13301778
4806.00   1.14373291
4808.00   1.13286817
4810.00   1.17005646
4812.00   1.20778728
4814.00   1.16019046
4816.00   1.16628218
4818.00   1.19224787
4820.00   1.21826828
4822.00   1.18638778
4824.00   1.23368967
4826.00   1.17635906
4828.00   1.17957115
4830.00   1.22508669
4832.00   1.17774320
4834.00   1.20783830
4836.00   1.18671918
4838.00   1.17637575
4840.00   1.23195624
4842.00   1.17881155
4844.00   1.17079723
4846.00   1.13197923
4848.00   1.15899312
4850.00   1.20461631
4852.00   1.18280554
4854.00   1.14844072
4856.00   1.15113103
4858.00   1.17844427
4860.00   1.16562593
4862.00   1.10889494
4864.00   1.11190069
4866.00   1.11475968
4868.00   1.09781301
4870.00   1.16074896
4872.00   1.13559651
4874.00   1.12156463
4876.00   1.14460826
4878.00   1.17161191
4880.00   1.21856093
4882.00   1.19845700
4884.00   1.15530086
4886.00   1.14070773
4888.00   1.19494867
4890.00   1.24971509
4892.00   1.19062090
4894.00   1.18607926
4896.00   1.20413947
4898.00   1.25621021
4900.00   1.27469754
4902.00   1.22722304
4904.00   1.22717631
4906.00   1.25111985
4908.00   1.32119930
4910.00   1.26272273
4912.00   1.24548852
4914.00   1.25857437
4916.00   1.25554109
4918.00   1.28294516
4920.00   1.24938226
4922.00   1.26886976
4924.00   1.27528596
4926.00   1.25156307
4928.00   1.28988469
4930.00   1.25795197
4932.00   1.30448222
4934.00   1.26836169
4936.00   1.28462327
4938.00   1.33743107
4940.00   1.29302728
4942.00   1.30210662
4944.00   1.26385427
4946.00   1.31779528
4948.00   1.26294863
4950.00   1.28681457
4952.00   1.26307726
4954.00   1.23066664
4956.00   1.27385294
4958.00   1.18399692
4960.00   1.24248743
4962.00   1.18866229
4964.00   1.19624209
4966.00   1.27135682
4968.00   1.22932637
4970.00   1.21763420
4972.00   1.26052439
4974.00   1.23988557
4976.00   1.25283778
4978.00   1.24935436
4980.00   1.26351106
4982.00   1.23232949
4984.00   1.27026021
4986.00   1.31499672
4988.00   1.27829134
4990.00   1.31880414
4992.00   1.23352051
4994.00   1.32089782
4996.00   1.26692295
4998.00   1.31671894
5000.00   1.32573843
5002.00   1.37968564
5004.00   1.32214737
5006.00   1.37336361
5008.00   1.40123868
5010.00   1.41235232
5012.00   1.37387979
5014.00   1.32115090
5016.00   1.33707988
5018.00   1.33930266
5020.00   1.36797702
5022.00   1.42946422
5024.00   1.38504541
5026.00   1.39973330
5028.00   1.50533700
5030.00   1.43252492
5032.00   1.51848423
5034.00   1.46101105
5036.00   1.44529462
5038.00   1.44312716
5040.00   1.44661152
5042.00   1.45302272
5044.00   1.49032450
5046.00   1.46003914
5048.00   1.44238830
5050.00   1.48198509
5052.00   1.46227038
5054.00   1.39918387
5056.00   1.48600662
5058.00   1.51106358
5060.00   1.44206738
5062.00   1.46753478
5064.00   1.45451939
5066.00   1.48817313
5068.00   1.39979517
5070.00   1.34518337
5072.00   1.38245058
5074.00   1.38442397
5076.00   1.37528872
5078.00   1.34825146
5080.00   1.35286570
5082.00   1.32093132
5084.00   1.30091262
5086.00   1.32442081
5088.00   1.37667942
5090.00   1.28734851
5092.00   1.31763136
5094.00   1.29326999
5096.00   1.28200364
5098.00   1.29041576
5100.00   1.24225986
5102.00   1.23526084
5104.00   1.22058439
5106.00   1.19294226
5108.00   1.28327799
5110.00   1.20132434
5112.00   1.16351378
5114.00   1.18716109
5116.00   1.19487393
5118.00   1.21816123
5120.00   1.23163784
5122.00   1.30429673
5124.00   1.26144290
5126.00   1.23084283
5128.00   1.25863993
5130.00   1.22936642
5132.00   1.28471720
5134.00   1.18371749
5136.00   1.26211166
5138.00   1.28453290
5140.00   1.29383552
5142.00   1.29627895
5144.00   1.28658473
5146.00   1.28120053
5148.00   1.27854669
5150.00   1.29281175
5152.00   1.27044117
5154.00   1.31078005
5156.00   1.32718384
5158.00   1.32119739
5160.00   1.25826216
5162.00   1.28486621
5164.00   1.31450868
5166.00   1.33464956
5168.00   1.32016706
5170.00   1.30146384
5172.00   1.27292848
5174.00   1.28593612
5176.00   1.31370378
5178.00   1.30655909
5180.00   1.35073709
5182.00   1.31281185
5184.00   1.27319109
5186.00   1.29206944
5188.00   1.27535021
5190.00   1.34594607
5192.00   1.31169009
5194.00   1.29913402
5196.00   1.27086091
5198.00   1.27057278
5200.00   1.26961529
5202.00   1.28859103
5204.00   1.25577426
5206.00   1.29682648
5208.00   1.29080677
5210.00   1.27944517
5212.00   1.34355414
5214.00   1.26690388
5216.00   1.25180602
5218.00   1.31573510
5220.00   1.30959105
5222.00   1.33202338
5224.00   1.28455579
5226.00   1.30874062
5228.00   1.33644879
5230.00   1.31422830
5232.00   1.37779820
5234.00   1.31345534
5236.00   1.32083344
5238.00   1.31641579
5240.00   1.32560599
5242.00   1.26401794
5244.00   1.31722140
5246.00   1.26249206
5248.00   1.35294402
5250.00   1.28590584
5252.00   1.40677011
5254.00   1.33001280
5256.00   1.34122729
5258.00   1.34007502
5260.00   1.28971958
5262.00   1.29115272
5264.00   1.28997421
5266.00   1.30498457
5268.00   1.28892779
5270.00   1.32474577
5272.00   1.32456553
5274.00   1.37236130
5276.00   1.36575234
5278.00   1.32363582
5280.00   1.39995384
5282.00   1.37827456
5284.00   1.32297170
5286.00   1.32657886
5288.00   1.40626991
5290.00   1.34415352
5292.00   1.35175228
5294.00   1.35173285
5296.00   1.35799754
5298.00   1.39099216
5300.00   1.38158655
5302.00   1.32593632
5304.00   1.38259447
5306.00   1.36234784
5308.00   1.40790999
5310.00   1.42231941
5312.00   1.32889545
5314.00   1.35928166
5316.00   1.45909476
5318.00   1.42052162
5320.00   1.41909325
5322.00   1.39692855
5324.00   1.36182511
5326.00   1.36170805
5328.00   1.37616873
5330.00   1.36241102
5332.00   1.40083706
5334.00   1.33180487
5336.00   1.32271123
5338.00   1.32644928
5340.00   1.34231865
5342.00   1.32398486
5344.00   1.28810489
5346.00   1.34073222
5348.00   1.30575871
5350.00   1.29588521
