# Converted from sn2016coj-20160614.198-uv.ms.fits
# wl (A)     fl (flam)   er (flam, opt)
3498.000000    15.333665    0.408612
3500.000000    14.456838    0.409431
3502.000000    15.365644    0.415086
3504.000000    15.415206    0.410887
3506.000000    16.590881    0.418849
3508.000000    15.691807    0.412458
3510.000000    15.800767    0.407094
3512.000000    14.848027    0.398234
3514.000000    16.146730    0.405077
3516.000000    15.579587    0.409051
3518.000000    15.864985    0.413038
3520.000000    16.406511    0.408745
3522.000000    16.423054    0.399475
3524.000000    16.225670    0.397457
3526.000000    16.471899    0.399885
3528.000000    16.454304    0.412087
3530.000000    17.614361    0.416139
3532.000000    18.512320    0.419422
3534.000000    18.068075    0.420251
3536.000000    18.120516    0.421938
3538.000000    19.349499    0.428217
3540.000000    19.664133    0.433308
3542.000000    19.323683    0.429885
3544.000000    19.266968    0.431892
3546.000000    19.216999    0.431563
3548.000000    18.682226    0.427805
3550.000000    19.574619    0.429990
3552.000000    19.930273    0.426358
3554.000000    19.740229    0.424288
3556.000000    19.753012    0.425152
3558.000000    20.247959    0.426329
3560.000000    19.987614    0.425997
3562.000000    20.115011    0.424290
3564.000000    20.911570    0.421145
3566.000000    20.727325    0.412223
3568.000000    20.832472    0.410899
3570.000000    20.770195    0.408517
3572.000000    21.128014    0.416381
3574.000000    20.798752    0.416965
3576.000000    21.042385    0.415824
3578.000000    20.119114    0.403715
3580.000000    20.523775    0.400110
3582.000000    21.084276    0.400091
3584.000000    21.083532    0.393561
3586.000000    20.199867    0.386836
3588.000000    20.074087    0.393202
3590.000000    20.270613    0.401521
3592.000000    19.969051    0.399815
3594.000000    20.034420    0.400791
3596.000000    18.811134    0.395790
3598.000000    19.247850    0.398477
3600.000000    19.074812    0.394520
3602.000000    20.244122    0.392550
3604.000000    19.488846    0.383200
3606.000000    18.949020    0.380175
3608.000000    19.355356    0.379856
3610.000000    19.703773    0.385085
3612.000000    19.577415    0.386875
3614.000000    20.136057    0.389615
3616.000000    20.088629    0.384718
3618.000000    21.122229    0.382796
3620.000000    21.222767    0.384360
3622.000000    21.690569    0.391007
3624.000000    21.567717    0.391646
3626.000000    22.828697    0.404581
3628.000000    23.297695    0.405170
3630.000000    22.997366    0.394170
3632.000000    24.705132    0.398533
3634.000000    24.961977    0.403220
3636.000000    25.463757    0.405903
3638.000000    25.205265    0.410052
3640.000000    26.049038    0.414300
3642.000000    26.894701    0.415945
3644.000000    28.640860    0.419298
3646.000000    28.113745    0.417420
3648.000000    29.108309    0.435813
3650.000000    29.971888    0.447231
3652.000000    29.856976    0.440525
3654.000000    31.122517    0.441098
3656.000000    30.184181    0.432147
3658.000000    30.461123    0.426937
3660.000000    31.033756    0.431687
3662.000000    31.039921    0.434164
3664.000000    31.370567    0.430008
3666.000000    32.033432    0.424004
3668.000000    32.475124    0.422276
3670.000000    31.434706    0.416689
3672.000000    31.042299    0.415290
3674.000000    30.407616    0.411216
3676.000000    30.298910    0.404879
3678.000000    28.899569    0.393228
3680.000000    28.142622    0.389117
3682.000000    27.124325    0.383798
3684.000000    26.699394    0.379947
3686.000000    25.135572    0.369125
3688.000000    25.469637    0.368766
3690.000000    25.020025    0.372780
3692.000000    23.345152    0.364842
3694.000000    23.183205    0.359192
3696.000000    22.681452    0.357285
3698.000000    22.209385    0.357334
3700.000000    22.338779    0.355580
3702.000000    21.403360    0.347844
3704.000000    22.035189    0.340966
3706.000000    22.331940    0.341129
3708.000000    22.170784    0.341218
3710.000000    22.025848    0.345845
3712.000000    21.284641    0.346853
3714.000000    21.217758    0.345539
3716.000000    20.566750    0.338025
3718.000000    20.880514    0.330059
3720.000000    20.963470    0.321679
3722.000000    20.353848    0.322467
3724.000000    20.558607    0.328555
3726.000000    20.498165    0.328721
3728.000000    19.830896    0.325447
3730.000000    19.708921    0.322017
3732.000000    19.811867    0.313344
3734.000000    20.747049    0.309850
3736.000000    19.509928    0.304796
3738.000000    19.231977    0.311963
3740.000000    18.643564    0.314427
3742.000000    19.251261    0.313382
3744.000000    18.895763    0.303233
3746.000000    18.886421    0.297577
3748.000000    18.974483    0.294783
3750.000000    18.225000    0.294395
3752.000000    17.760389    0.299854
3754.000000    16.996153    0.298447
3756.000000    17.054611    0.293808
3758.000000    17.543518    0.289274
3760.000000    17.597685    0.289819
3762.000000    17.043388    0.287819
3764.000000    16.588491    0.284493
3766.000000    16.799547    0.284535
3768.000000    16.267269    0.281785
3770.000000    16.096090    0.284447
3772.000000    15.714066    0.283885
3774.000000    15.904313    0.284927
3776.000000    15.669331    0.282055
3778.000000    15.594785    0.281477
3780.000000    15.446913    0.282129
3782.000000    15.782660    0.283795
3784.000000    15.351112    0.279302
3786.000000    15.417850    0.274436
3788.000000    15.359975    0.272068
3790.000000    15.156570    0.271957
3792.000000    15.422755    0.271534
3794.000000    15.536504    0.270142
3796.000000    15.915996    0.267497
3798.000000    15.776919    0.266576
3800.000000    15.292746    0.268549
3802.000000    15.875778    0.274404
3804.000000    15.551155    0.270465
3806.000000    15.423833    0.266433
3808.000000    15.803393    0.265865
3810.000000    15.987677    0.268116
3812.000000    16.007215    0.263110
3814.000000    16.183619    0.256932
3816.000000    16.654884    0.258858
3818.000000    17.013369    0.259152
3820.000000    18.011990    0.262869
3822.000000    17.564394    0.260390
3824.000000    18.934828    0.263548
3826.000000    18.385466    0.260192
3828.000000    18.630997    0.262941
3830.000000    19.567467    0.265170
3832.000000    20.137341    0.264707
3834.000000    19.752956    0.262309
3836.000000    20.656971    0.265820
3838.000000    20.915014    0.265497
3840.000000    21.001583    0.267114
3842.000000    21.524763    0.273416
3844.000000    21.433907    0.275401
3846.000000    21.879145    0.277395
3848.000000    22.699146    0.277524
3850.000000    22.999273    0.277174
3852.000000    23.617838    0.280152
3854.000000    24.706324    0.282089
3856.000000    24.804718    0.281013
3858.000000    24.995457    0.279063
3860.000000    25.876846    0.284882
3862.000000    26.150972    0.290711
3864.000000    27.248512    0.294921
3866.000000    27.781919    0.295664
3868.000000    28.772856    0.297041
3870.000000    28.953402    0.293574
3872.000000    29.666809    0.298276
3874.000000    30.337799    0.304452
3876.000000    31.286772    0.304850
3878.000000    31.614183    0.303387
3880.000000    32.370399    0.305641
3882.000000    33.547386    0.309803
3884.000000    34.142826    0.310429
3886.000000    35.060162    0.311635
3888.000000    34.670666    0.310532
3890.000000    35.517765    0.314508
3892.000000    36.270592    0.318274
3894.000000    36.783298    0.320047
3896.000000    36.936245    0.319497
3898.000000    37.987457    0.322625
3900.000000    38.289803    0.322805
3902.000000    38.474098    0.322568
3904.000000    38.819706    0.323293
3906.000000    39.700356    0.329756
3908.000000    40.734196    0.335540
3910.000000    40.518589    0.337301
3912.000000    41.498901    0.340867
3914.000000    42.015911    0.338986
3916.000000    42.536064    0.333705
3918.000000    42.881863    0.330726
3920.000000    43.333401    0.329716
3922.000000    43.419968    0.328897
3924.000000    44.287346    0.329943
3926.000000    44.234188    0.327100
3928.000000    44.689598    0.323898
3930.000000    43.365807    0.317092
3932.000000    42.120441    0.312663
3934.000000    43.579498    0.315881
3936.000000    44.739464    0.318812
3938.000000    44.903385    0.322422
3940.000000    44.894051    0.323554
3942.000000    44.045998    0.320880
3944.000000    44.392345    0.322787
3946.000000    43.384224    0.320159
3948.000000    43.298103    0.319578
3950.000000    42.380226    0.316000
3952.000000    41.403351    0.312232
3954.000000    40.866829    0.309755
3956.000000    40.516308    0.308900
3958.000000    39.981430    0.307729
3960.000000    39.843494    0.304724
3962.000000    38.943043    0.298338
3964.000000    38.458790    0.293344
3966.000000    36.410809    0.283956
3968.000000    36.086227    0.281097
3970.000000    35.756760    0.282068
3972.000000    35.554375    0.285145
3974.000000    35.208618    0.285693
3976.000000    35.044529    0.286350
3978.000000    34.111591    0.285628
3980.000000    33.370152    0.283251
3982.000000    32.557110    0.278830
3984.000000    32.487328    0.277522
3986.000000    31.810143    0.275892
3988.000000    31.309666    0.276247
3990.000000    31.092161    0.277073
3992.000000    31.396063    0.278038
3994.000000    30.454184    0.276259
3996.000000    30.419191    0.276546
3998.000000    30.688812    0.276241
4000.000000    30.261982    0.274637
4002.000000    30.368896    0.274426
4004.000000    29.664980    0.270340
4006.000000    30.459347    0.271155
4008.000000    29.932030    0.272134
4010.000000    30.082024    0.273193
4012.000000    29.881165    0.271634
4014.000000    29.981731    0.271678
4016.000000    29.954161    0.271123
4018.000000    30.246426    0.274454
4020.000000    30.769453    0.277722
4022.000000    31.521399    0.279065
4024.000000    31.284773    0.277831
4026.000000    32.005096    0.277932
4028.000000    32.262402    0.275761
4030.000000    32.473312    0.274392
4032.000000    32.513145    0.272446
4034.000000    32.122147    0.271482
4036.000000    33.029934    0.274863
4038.000000    32.950394    0.274833
4040.000000    33.058971    0.274012
4042.000000    33.141273    0.275171
4044.000000    33.274216    0.288693
4046.000000    33.167690    0.297663
4048.000000    33.167439    0.288478
4050.000000    32.734665    0.272991
4052.000000    33.117313    0.271335
4054.000000    33.296333    0.271065
4056.000000    33.886669    0.271138
4058.000000    33.824074    0.270026
4060.000000    33.903996    0.269241
4062.000000    34.192184    0.267697
4064.000000    35.001438    0.268940
4066.000000    34.933952    0.271448
4068.000000    35.492584    0.273290
4070.000000    35.571457    0.273246
4072.000000    35.732780    0.272094
4074.000000    35.888508    0.273812
4076.000000    35.905941    0.274783
4078.000000    36.670204    0.277594
4080.000000    36.781738    0.278058
4082.000000    36.338650    0.275819
4084.000000    36.405163    0.274566
4086.000000    36.279034    0.275100
4088.000000    35.966900    0.274678
4090.000000    36.637997    0.274571
4092.000000    36.294346    0.271764
4094.000000    36.136097    0.270701
4096.000000    36.409378    0.270076
4098.000000    36.625717    0.268946
4100.000000    36.750820    0.266316
4102.000000    36.678020    0.267118
4104.000000    36.149677    0.267086
4106.000000    36.894154    0.269659
4108.000000    37.112484    0.269683
4110.000000    36.711155    0.269160
4112.000000    37.248318    0.270081
4114.000000    37.334835    0.270506
4116.000000    38.121799    0.271454
4118.000000    38.278721    0.270779
4120.000000    38.242512    0.269487
4122.000000    38.289494    0.270147
4124.000000    38.548615    0.270102
4126.000000    38.609982    0.269529
4128.000000    38.649025    0.269120
4130.000000    39.100094    0.269843
4132.000000    39.213181    0.269173
4134.000000    39.415718    0.269792
4136.000000    40.005436    0.271034
4138.000000    39.539883    0.271248
4140.000000    39.359913    0.269677
4142.000000    39.509251    0.267089
4144.000000    39.507553    0.265765
4146.000000    39.660938    0.267152
4148.000000    39.579731    0.266507
4150.000000    39.698494    0.269321
4152.000000    39.665596    0.266901
4154.000000    39.612408    0.265653
4156.000000    39.814865    0.265025
4158.000000    39.712067    0.264952
4160.000000    38.976933    0.263554
4162.000000    38.833374    0.263693
4164.000000    39.043678    0.264797
4166.000000    38.351292    0.261563
4168.000000    39.036205    0.261043
4170.000000    38.252403    0.258123
4172.000000    38.105930    0.255750
4174.000000    37.975834    0.255177
4176.000000    38.440559    0.256972
4178.000000    38.925098    0.257497
4180.000000    39.211388    0.257568
4182.000000    38.753002    0.256603
4184.000000    38.603806    0.255509
4186.000000    38.416691    0.254299
4188.000000    38.387810    0.254006
4190.000000    38.508148    0.254787
4192.000000    38.633137    0.254908
4194.000000    38.797298    0.254471
4196.000000    38.667328    0.252697
4198.000000    38.728157    0.251969
4200.000000    39.179089    0.252855
4202.000000    39.612911    0.253804
4204.000000    39.679146    0.254669
4206.000000    39.479435    0.254745
4208.000000    39.426895    0.255164
4210.000000    39.011124    0.254876
4212.000000    39.098572    0.254023
4214.000000    39.031250    0.252193
4216.000000    38.421562    0.249814
4218.000000    38.280212    0.249537
4220.000000    37.574741    0.247915
4222.000000    37.134972    0.246264
4224.000000    37.389412    0.243987
4226.000000    37.310143    0.242711
4228.000000    36.975330    0.243389
4230.000000    36.416103    0.244250
4232.000000    36.227150    0.243195
4234.000000    36.121002    0.241717
4236.000000    35.602871    0.239643
4238.000000    35.572319    0.239509
4240.000000    35.651005    0.239006
4242.000000    35.480373    0.237734
4244.000000    34.942554    0.238691
4246.000000    34.899658    0.239005
4248.000000    34.771145    0.236689
4250.000000    34.438408    0.234425
4252.000000    33.997913    0.233211
4254.000000    34.489204    0.234059
4256.000000    34.206100    0.233068
4258.000000    34.575676    0.232350
4260.000000    33.685684    0.230325
4262.000000    34.133717    0.231946
4264.000000    34.355335    0.233514
4266.000000    33.666462    0.230586
4268.000000    33.398155    0.227673
4270.000000    33.296204    0.226047
4272.000000    32.599514    0.223057
4274.000000    32.355427    0.223254
4276.000000    31.826176    0.223804
4278.000000    31.841726    0.223409
4280.000000    30.832220    0.220091
4282.000000    30.725470    0.219943
4284.000000    29.839113    0.216591
4286.000000    30.649290    0.216594
4288.000000    30.219324    0.214310
4290.000000    29.443182    0.212229
4292.000000    28.976496    0.212201
4294.000000    29.237240    0.213073
4296.000000    28.437113    0.209748
4298.000000    28.814199    0.208035
4300.000000    28.306004    0.205655
4302.000000    27.575615    0.203359
4304.000000    27.427046    0.203218
4306.000000    27.274651    0.201641
4308.000000    27.049316    0.200107
4310.000000    26.858702    0.200801
4312.000000    26.336994    0.202874
4314.000000    26.125189    0.205613
4316.000000    25.558725    0.204140
4318.000000    25.264858    0.204087
4320.000000    24.959404    0.202547
4322.000000    24.635780    0.199022
4324.000000    24.527241    0.196384
4326.000000    24.697561    0.196983
4328.000000    24.441418    0.198125
4330.000000    23.941023    0.198071
4332.000000    24.194450    0.198449
4334.000000    24.252880    0.199211
4336.000000    24.165646    0.197490
4338.000000    23.674406    0.194233
4340.000000    24.011730    0.194410
4342.000000    23.637623    0.194068
4344.000000    23.356836    0.195734
4346.000000    22.927982    0.196205
4348.000000    22.466867    0.195422
4350.000000    22.087114    0.193159
4352.000000    22.020988    0.191572
4354.000000    21.564892    0.199184
4356.000000    21.837887    0.225665
4358.000000    21.619730    0.236115
4360.000000    21.314486    0.217482
4362.000000    21.489126    0.199675
4364.000000    20.889933    0.192160
4366.000000    20.827921    0.190224
4368.000000    20.888826    0.188325
4370.000000    20.505501    0.187349
4372.000000    20.227816    0.186649
4374.000000    20.234486    0.185875
4376.000000    20.147846    0.184747
4378.000000    20.276651    0.185052
4380.000000    20.218037    0.182608
4382.000000    19.931742    0.179500
4384.000000    19.922466    0.178352
4386.000000    19.724092    0.178795
4388.000000    19.741018    0.178821
4390.000000    19.787212    0.178942
4392.000000    19.510851    0.178419
4394.000000    20.249746    0.180371
4396.000000    19.820583    0.179978
4398.000000    20.732887    0.182449
4400.000000    20.936554    0.183080
4402.000000    21.065947    0.182021
4404.000000    21.111216    0.181608
4406.000000    21.040337    0.182173
4408.000000    20.990688    0.183028
4410.000000    21.494308    0.185876
4412.000000    22.240095    0.188661
4414.000000    22.223379    0.187840
4416.000000    22.068760    0.187490
4418.000000    22.766087    0.189253
4420.000000    22.599665    0.188434
4422.000000    22.662533    0.188109
4424.000000    22.825861    0.187764
4426.000000    22.952606    0.188247
4428.000000    22.989134    0.188841
4430.000000    23.813696    0.190564
4432.000000    24.083847    0.191002
4434.000000    24.207846    0.190657
4436.000000    24.745594    0.191970
4438.000000    25.095970    0.193237
4440.000000    25.328711    0.193102
4442.000000    25.512255    0.192568
4444.000000    25.285517    0.193029
4446.000000    25.947302    0.194706
4448.000000    26.376015    0.194699
4450.000000    26.323736    0.194467
4452.000000    26.448353    0.194113
4454.000000    27.012482    0.194754
4456.000000    26.749174    0.193586
4458.000000    27.419495    0.195334
4460.000000    27.342367    0.195620
4462.000000    27.631573    0.196650
4464.000000    27.958994    0.197818
4466.000000    28.763826    0.199466
4468.000000    28.810673    0.199222
4470.000000    29.033670    0.199964
4472.000000    29.352003    0.201259
4474.000000    30.017029    0.202452
4476.000000    30.342615    0.202954
4478.000000    30.971786    0.203745
4480.000000    31.402176    0.203675
4482.000000    32.112988    0.205818
4484.000000    32.682587    0.207966
4486.000000    32.711113    0.209370
4488.000000    32.956657    0.209434
4490.000000    33.695801    0.210919
4492.000000    34.289616    0.212686
4494.000000    34.229206    0.212628
4496.000000    34.471386    0.213640
4498.000000    34.786045    0.214321
4500.000000    35.782688    0.216070
4502.000000    35.915157    0.216528
4504.000000    36.837936    0.218147
4506.000000    37.217930    0.218693
4508.000000    37.476646    0.219219
4510.000000    37.625454    0.220323
4512.000000    38.039120    0.219569
4514.000000    38.272022    0.220312
4516.000000    39.110714    0.221137
4518.000000    38.896076    0.220631
4520.000000    38.890430    0.221384
4522.000000    39.394268    0.221172
4524.000000    39.570621    0.220997
4526.000000    39.973549    0.221020
4528.000000    40.312206    0.221588
4530.000000    39.944546    0.220713
4532.000000    40.291359    0.221158
4534.000000    40.279823    0.220943
4536.000000    40.222607    0.221563
4538.000000    40.666176    0.222828
4540.000000    40.586498    0.222745
4542.000000    40.443909    0.222261
4544.000000    41.077374    0.222859
4546.000000    41.111485    0.222291
4548.000000    41.350323    0.221820
4550.000000    41.472595    0.222314
4552.000000    41.816635    0.222623
4554.000000    41.677044    0.222798
4556.000000    41.897217    0.223829
4558.000000    41.656971    0.223388
4560.000000    41.772949    0.223662
4562.000000    42.662640    0.224619
4564.000000    42.049530    0.223512
4566.000000    41.465424    0.221899
4568.000000    42.061169    0.222582
4570.000000    41.508404    0.221267
4572.000000    41.578827    0.221751
