# File created by shivutils (I.Shivvers)
# wl(A)   flm    er(optional)
3632.00   11.46337986   0.35909423
3634.00   11.38286018   0.35491312
3636.00   11.68819523   0.36029533
3638.00   12.35217381   0.36512256
3640.00   13.56583500   0.37678438
3642.00   13.30628586   0.37701774
3644.00   14.07241917   0.38386270
3646.00   14.14732075   0.38437346
3648.00   14.49216843   0.40816268
3650.00   15.08387470   0.43970847
3652.00   13.44962025   0.41751954
3654.00   13.21073818   0.39871314
3656.00   12.87239552   0.38511527
3658.00   12.28924561   0.36261126
3660.00   12.98586845   0.36620149
3662.00   13.74577713   0.38446444
3664.00   13.26482487   0.37876666
3666.00   13.17028904   0.36297131
3668.00   13.11817932   0.35339785
3670.00   13.83208942   0.35644504
3672.00   14.57280064   0.36407027
3674.00   15.62617016   0.37369666
3676.00   16.30716515   0.37436083
3678.00   14.34009171   0.35354248
3680.00   13.53981972   0.34384671
3682.00   13.10766125   0.34120810
3684.00   13.75876522   0.34325737
3686.00   14.62759018   0.34701952
3688.00   15.90087605   0.35801128
3690.00   16.28893471   0.36491549
3692.00   15.64017677   0.36050096
3694.00   14.87749004   0.35013190
3696.00   13.99494362   0.34333867
3698.00   14.94324970   0.35168272
3700.00   15.40709114   0.35645187
3702.00   15.98976135   0.35742080
3704.00   17.11323357   0.36270052
3706.00   17.65245438   0.36420456
3708.00   18.74893379   0.36956975
3710.00   17.43419647   0.36064470
3712.00   17.37691879   0.36113325
3714.00   17.24894714   0.35921428
3716.00   16.83986473   0.35518491
3718.00   16.81476402   0.35072663
3720.00   16.75609016   0.34596997
3722.00   17.63048744   0.35147980
3724.00   17.38960075   0.35453725
3726.00   17.03790855   0.35113561
3728.00   16.21917915   0.34070447
3730.00   15.74221134   0.33818087
3732.00   16.73268700   0.33987278
3734.00   16.06530190   0.33226669
3736.00   15.64745140   0.32674336
3738.00   15.87259293   0.33131722
3740.00   17.18407249   0.34471610
3742.00   17.25317192   0.34453991
3744.00   17.24074936   0.33890039
3746.00   16.71771049   0.33216816
3748.00   16.67089653   0.33034787
3750.00   17.47672081   0.33559626
3752.00   16.44498253   0.32907078
3754.00   14.45547581   0.31518683
3756.00   14.36081505   0.31237918
3758.00   14.77792358   0.30955312
3760.00   14.97080803   0.31251079
3762.00   16.73683357   0.32312733
3764.00   17.47023392   0.32759991
3766.00   17.39951897   0.32564864
3768.00   15.68462753   0.31211248
3770.00   13.56338978   0.29657659
3772.00   13.55299854   0.29777744
3774.00   15.70324230   0.31510708
3776.00   17.10376358   0.32412830
3778.00   16.71815681   0.32134765
3780.00   15.44249535   0.30938500
3782.00   13.54131985   0.29380465
3784.00   12.27956581   0.28082544
3786.00   11.98842812   0.27510232
3788.00   13.62841129   0.28672597
3790.00   14.97857475   0.29937118
3792.00   15.55885506   0.30186188
3794.00   14.33908558   0.29061794
3796.00   12.82473183   0.27559286
3798.00   11.27111244   0.26091495
3800.00   11.86476517   0.26701471
3802.00   13.85671425   0.28523394
3804.00   16.31772423   0.30214760
3806.00   16.76342392   0.30337140
3808.00   14.97305965   0.28947109
3810.00   14.63172913   0.28876686
3812.00   15.44901562   0.29241908
3814.00   15.31091213   0.28737876
3816.00   15.11691284   0.28493163
3818.00   14.79915333   0.28168979
3820.00   13.83648491   0.27248329
3822.00   15.06061745   0.28061116
3824.00   16.88814926   0.29176375
3826.00   17.41739845   0.29406640
3828.00   17.63425636   0.29818308
3830.00   18.92035675   0.30641910
3832.00   19.68091011   0.30857942
3834.00   19.11429214   0.30315885
3836.00   18.76630211   0.29947105
3838.00   17.16725540   0.28886738
3840.00   16.26018333   0.28174579
3842.00   16.95994759   0.28614202
3844.00   16.02754784   0.28081825
3846.00   14.73883438   0.27097768
3848.00   13.58615780   0.26193589
3850.00   14.84223461   0.26807603
3852.00   16.94975281   0.28267983
3854.00   18.34115028   0.29102597
3856.00   19.22476196   0.29411307
3858.00   19.32132149   0.29169714
3860.00   19.71074867   0.29354969
3862.00   19.63846588   0.29547340
3864.00   19.25441933   0.29471043
3866.00   18.14147377   0.28512695
3868.00   18.15753746   0.28281903
3870.00   18.76722717   0.28422222
3872.00   17.90151405   0.27940220
3874.00   17.74350739   0.28017217
3876.00   16.89280128   0.27507412
3878.00   16.41313362   0.26831990
3880.00   16.48913193   0.26631987
3882.00   16.25059509   0.26438838
3884.00   15.27217388   0.25596398
3886.00   14.87180805   0.25224075
3888.00   15.20775223   0.25610855
3890.00   16.18117714   0.26276061
3892.00   17.82223129   0.27202040
3894.00   19.68495560   0.28304639
3896.00   20.98294258   0.29157308
3898.00   21.75569725   0.29602349
3900.00   22.35909843   0.29721346
3902.00   22.56489944   0.29864469
3904.00   23.01172447   0.30201122
3906.00   22.51376915   0.30313820
3908.00   22.13807487   0.30391487
3910.00   22.39596939   0.30521259
3912.00   22.03581619   0.30366886
3914.00   23.62491035   0.30859023
3916.00   24.40878487   0.30845502
3918.00   23.82718658   0.30348685
3920.00   24.84305000   0.30470392
3922.00   23.53397179   0.29614499
3924.00   22.86558151   0.29122511
3926.00   23.84612274   0.29424655
3928.00   23.86975479   0.29204252
3930.00   22.88106537   0.28522089
3932.00   22.13568687   0.28157511
3934.00   22.58274269   0.28232202
3936.00   22.50845337   0.28020135
3938.00   21.25774193   0.27414027
3940.00   20.42095375   0.27115646
3942.00   21.64898872   0.27917761
3944.00   23.05754852   0.28752100
3946.00   24.11187172   0.29205739
3948.00   25.27803612   0.29739809
3950.00   25.13271713   0.29440290
3952.00   26.25400734   0.29967308
3954.00   26.39902878   0.29997775
3956.00   25.39735603   0.29338104
3958.00   25.63492775   0.29452065
3960.00   26.47552299   0.29915550
3962.00   27.79077530   0.30393085
3964.00   28.34989548   0.30169067
3966.00   27.68808174   0.29586044
3968.00   26.41591454   0.28818300
3970.00   27.30615807   0.29198363
3972.00   26.24825859   0.28823096
3974.00   25.59016609   0.28640142
3976.00   25.92456245   0.28804472
3978.00   25.12366676   0.28479037
3980.00   23.13019371   0.27446234
3982.00   19.68032646   0.25609797
3984.00   15.99044800   0.23402794
3986.00   14.84000969   0.22609518
3988.00   16.87646294   0.23888272
3990.00   19.88063622   0.25606519
3992.00   23.03117180   0.27089611
3994.00   24.36274910   0.27804226
3996.00   24.99986839   0.28210330
3998.00   25.88558197   0.28566548
4000.00   26.90550232   0.28871495
4002.00   26.96236801   0.28761190
4004.00   27.64595032   0.28881136
4006.00   27.57982063   0.28878629
4008.00   27.33202171   0.28796864
4010.00   26.64735413   0.28546721
4012.00   25.74451065   0.28072837
4014.00   24.01390839   0.27245069
4016.00   22.13264656   0.26248485
4018.00   18.87741852   0.24906966
4020.00   15.58058739   0.23613229
4022.00   15.14866829   0.23467281
4024.00   16.69791985   0.24182069
4026.00   19.27526283   0.25192696
4028.00   21.57019615   0.26008943
4030.00   24.31837082   0.27093199
4032.00   25.46915054   0.27488953
4034.00   25.87176514   0.27608931
4036.00   26.16144371   0.27790195
4038.00   25.87235069   0.27632880
4040.00   26.39516640   0.27737942
4042.00   27.00628662   0.28121936
4044.00   27.34468651   0.30144176
4046.00   27.72601700   0.32648811
4048.00   27.33118248   0.32006216
4050.00   26.59181404   0.28813452
4052.00   26.91196823   0.28109372
4054.00   27.63402557   0.28270069
4056.00   27.72261429   0.28167343
4058.00   26.81156731   0.27428377
4060.00   26.84813309   0.27424112
4062.00   27.17069626   0.27356663
4064.00   27.90233994   0.27650845
4066.00   28.67419052   0.27910271
4068.00   28.37687111   0.27798659
4070.00   28.66031265   0.27823454
4072.00   28.36844444   0.27573159
4074.00   28.97223663   0.27864796
4076.00   28.26008797   0.27946752
4078.00   28.02862930   0.28097966
4080.00   28.07950974   0.27957472
4082.00   27.97434044   0.27712712
4084.00   27.02952957   0.27178225
4086.00   25.62949753   0.26534760
4088.00   26.02845955   0.26543966
4090.00   27.42028427   0.26936448
4092.00   28.62300301   0.27343437
4094.00   28.25996208   0.27025709
4096.00   27.19419670   0.26538670
4098.00   25.63073158   0.25804475
4100.00   25.24871826   0.25435317
4102.00   26.65936279   0.25949270
4104.00   27.58761597   0.26371253
4106.00   27.52728653   0.26369911
4108.00   26.87620735   0.26060006
4110.00   26.05014420   0.25658956
4112.00   26.09587860   0.25692588
4114.00   25.97780800   0.25670007
4116.00   25.26749611   0.25364530
4118.00   24.81948280   0.25088543
4120.00   25.28394508   0.25151774
4122.00   25.45805359   0.25190872
4124.00   26.15833092   0.25438651
4126.00   25.68174934   0.25266227
4128.00   25.65666008   0.25189239
4130.00   25.25571060   0.24962965
4132.00   24.27862549   0.24688090
4134.00   25.65741158   0.25218615
4136.00   26.33721542   0.25477681
4138.00   26.38499451   0.25444451
4140.00   26.36459541   0.25483510
4142.00   27.21678543   0.25594422
4144.00   27.82380486   0.25593522
4146.00   26.87191963   0.25303656
4148.00   26.11819077   0.24984680
4150.00   25.06564140   0.24600790
4152.00   23.77763748   0.24118903
4154.00   22.10257149   0.23360832
4156.00   21.06785202   0.22660905
4158.00   21.44076538   0.22812226
4160.00   23.20485306   0.23644476
4162.00   24.71553421   0.24357833
4164.00   25.18750954   0.24750307
4166.00   25.61531258   0.24929559
4168.00   26.49905396   0.24961893
4170.00   27.21069145   0.25061646
4172.00   27.15738487   0.24924341
4174.00   26.93616676   0.24669306
4176.00   26.62226677   0.24587432
4178.00   26.92339325   0.24718966
4180.00   27.34869576   0.24802400
4182.00   26.68437004   0.24483253
4184.00   26.52236748   0.24361287
4186.00   25.82710457   0.24034509
4188.00   25.64430046   0.23964204
4190.00   27.20453453   0.24493830
4192.00   28.26134109   0.24928316
4194.00   28.84365273   0.25148785
4196.00   27.82204628   0.24591313
4198.00   26.94469833   0.24178478
4200.00   27.06867027   0.24165948
4202.00   27.59520721   0.24385230
4204.00   27.60692978   0.24436937
4206.00   27.62574005   0.24452996
4208.00   27.11025620   0.24292932
4210.00   26.88154411   0.24237122
4212.00   27.76875877   0.24464807
4214.00   27.68083572   0.24396189
4216.00   28.86738396   0.24738345
4218.00   29.20381927   0.24856919
4220.00   28.88424873   0.24732900
4222.00   28.63134766   0.24550401
4224.00   28.23945999   0.24269271
4226.00   27.23491669   0.23812914
4228.00   26.81760979   0.23646456
4230.00   26.63467979   0.23703824
4232.00   26.46195221   0.23681879
4234.00   26.91941261   0.23849240
4236.00   27.37207603   0.23948646
4238.00   27.60992241   0.24041194
4240.00   27.82831383   0.24026017
4242.00   27.48067093   0.23843032
4244.00   28.15961456   0.24287736
4246.00   28.57470894   0.24731348
4248.00   29.10189819   0.24835892
4250.00   28.89804840   0.24342938
4252.00   27.99315834   0.23820129
4254.00   27.02709961   0.23489131
4256.00   26.84623146   0.23457476
4258.00   26.79351807   0.23333417
4260.00   27.64318657   0.23550053
4262.00   28.72309303   0.23879570
4264.00   28.99867058   0.24015722
4266.00   29.43321609   0.24142727
4268.00   29.37882805   0.24035309
4270.00   28.75036430   0.23730111
4272.00   28.66909218   0.23642875
4274.00   29.48610115   0.23960017
4276.00   30.11639214   0.24227901
4278.00   29.17834282   0.23913506
4280.00   26.73752785   0.23043804
4282.00   25.65053368   0.22548561
4284.00   25.91048050   0.22666851
4286.00   28.08556366   0.23331414
4288.00   29.17253876   0.23667149
4290.00   28.64107513   0.23504220
4292.00   28.24173355   0.23332173
4294.00   28.12751961   0.23304993
4296.00   28.68790245   0.23401748
4298.00   29.38064384   0.23542175
4300.00   30.07882118   0.23700120
4302.00   29.91739845   0.23530874
4304.00   29.13255882   0.23329297
4306.00   28.31446075   0.23089620
4308.00   29.21608925   0.23322621
4310.00   28.63131142   0.23201989
4312.00   29.35250282   0.23687160
4314.00   29.09531975   0.23777044
4316.00   28.65181923   0.23546666
4318.00   28.97776985   0.23624586
4320.00   30.53042793   0.24128611
4322.00   31.15896988   0.24267791
4324.00   30.73231316   0.24062625
4326.00   28.76705742   0.23307736
4328.00   27.42803383   0.22706231
4330.00   27.40237427   0.22722061
4332.00   28.75210190   0.23160371
4334.00   29.84521294   0.23460408
4336.00   30.42103958   0.23601460
4338.00   30.02009201   0.23462689
4340.00   29.81607246   0.23409089
4342.00   29.12258720   0.23156893
4344.00   27.90316582   0.22846811
4346.00   27.15480423   0.22778220
4348.00   27.58766556   0.22939219
4350.00   28.39758492   0.23028308
4352.00   28.38150024   0.22965950
4354.00   27.20545006   0.22951582
4356.00   25.74642181   0.25707135
4358.00   25.09482002   0.27993637
4360.00   24.82925034   0.26768219
4362.00   24.29442406   0.23406395
4364.00   24.19802284   0.21934466
4366.00   23.98097229   0.21529894
4368.00   24.87216568   0.21739836
4370.00   26.28134346   0.22136930
4372.00   28.17439461   0.22825550
4374.00   29.99005890   0.23466933
4376.00   31.05912209   0.23685887
4378.00   30.15471840   0.23295191
4380.00   28.46170235   0.22578786
4382.00   26.38197327   0.21792036
4384.00   26.10635567   0.21623993
4386.00   27.41310883   0.22055945
4388.00   28.22625923   0.22318934
4390.00   28.59110641   0.22487201
4392.00   27.96839714   0.22294198
4394.00   26.29408646   0.21668084
4396.00   23.66804695   0.20730941
4398.00   22.41007423   0.20366047
4400.00   23.01064682   0.20647943
4402.00   24.56063843   0.21130913
4404.00   26.40155983   0.21630178
4406.00   27.02152443   0.21793982
4408.00   27.03705406   0.21762836
4410.00   25.95710182   0.21515018
4412.00   26.39703941   0.21608327
4414.00   27.36318207   0.21969235
4416.00   27.84824944   0.22131920
4418.00   28.11098289   0.22171418
4420.00   28.20767975   0.22145885
4422.00   29.14333725   0.22383076
4424.00   28.70707703   0.22189732
4426.00   28.31028748   0.22051603
4428.00   27.23771095   0.21734920
4430.00   26.66759872   0.21518953
4432.00   26.20664215   0.21319599
4434.00   26.32016563   0.21287373
4436.00   27.12538338   0.21502417
4438.00   26.86880875   0.21487582
4440.00   25.46940231   0.20974867
4442.00   23.84025955   0.20402737
4444.00   23.78293228   0.20359531
4446.00   25.25986481   0.20837773
4448.00   25.50417900   0.20909746
4450.00   26.07212257   0.21097054
4452.00   26.42792892   0.21130933
4454.00   26.81384468   0.21224546
4456.00   27.25894165   0.21334188
4458.00   27.11982918   0.21265356
4460.00   26.79873085   0.21129315
4462.00   25.93071365   0.20851745
4464.00   25.49189949   0.20720415
4466.00   26.10345459   0.20847538
4468.00   27.00482750   0.21142383
4470.00   27.55660439   0.21327271
4472.00   28.11470604   0.21486878
4474.00   27.58023834   0.21326260
4476.00   27.51799583   0.21303862
4478.00   28.08520317   0.21396497
4480.00   28.00749588   0.21348548
4482.00   27.98448181   0.21335895
4484.00   28.18579483   0.21431883
4486.00   28.06640434   0.21389298
4488.00   28.33413315   0.21463893
4490.00   28.12017822   0.21367677
4492.00   27.91361427   0.21265922
4494.00   27.63095284   0.21169953
4496.00   29.17300415   0.21599638
4498.00   29.26013184   0.21665430
4500.00   29.00234413   0.21550366
4502.00   28.44569206   0.21320103
4504.00   28.85459709   0.21436141
4506.00   29.83477211   0.21715529
4508.00   30.46032143   0.21890312
4510.00   30.44974136   0.21833713
4512.00   29.26416206   0.21527019
4514.00   28.52825356   0.21216600
4516.00   27.62738991   0.20920822
4518.00   27.68114662   0.20921883
4520.00   27.78869629   0.20928994
4522.00   28.57353592   0.21118884
4524.00   29.27299118   0.21302618
4526.00   29.23933792   0.21249188
4528.00   29.58648109   0.21305531
4530.00   30.30412674   0.21494296
4532.00   31.21242332   0.21747248
4534.00   32.09928131   0.22018647
4536.00   32.35804749   0.22069660
4538.00   32.15002441   0.21939825
4540.00   31.15390587   0.21680970
4542.00   30.86632156   0.21577415
4544.00   31.73987198   0.21821433
4546.00   32.05146790   0.21915618
4548.00   32.57784271   0.21963626
4550.00   31.89001656   0.21730538
4552.00   31.48013306   0.21616821
4554.00   31.73886108   0.21667787
4556.00   32.20820999   0.21812226
4558.00   33.16807938   0.22076686
4560.00   33.64059448   0.22199915
4562.00   34.21930313   0.22311881
4564.00   35.45057678   0.22611156
4566.00   35.63399124   0.22587259
4568.00   35.79771042   0.22674799
4570.00   35.93598938   0.22652754
4572.00   35.31832123   0.22491281
4574.00   35.42091370   0.22522372
4576.00   35.30068970   0.22440751
4578.00   35.52442169   0.22467639
4580.00   35.73451614   0.22465117
4582.00   35.78343201   0.22469570
4584.00   35.46905136   0.22324380
4586.00   35.00196457   0.22179413
4588.00   34.19511414   0.21967952
4590.00   34.44841766   0.21998881
4592.00   34.63095474   0.22069769
4594.00   34.81884766   0.22072910
4596.00   35.96866226   0.22369465
4598.00   36.73984146   0.22592743
4600.00   38.14380264   0.22909272
4602.00   38.55487442   0.22988588
4604.00   38.74204254   0.23028319
4606.00   38.42630005   0.22959736
4608.00   38.68137360   0.23030913
4610.00   38.57277679   0.22999623
4612.00   38.58110428   0.22949962
4614.00   38.81551743   0.22968699
4616.00   39.79210281   0.23216665
4618.00   41.02173996   0.23485363
4620.00   41.85682297   0.23739904
4622.00   42.41051483   0.23859507
4624.00   42.30963135   0.23820366
4626.00   42.02455139   0.23757580
4628.00   42.78244781   0.23907174
4630.00   42.85870743   0.23936450
4632.00   43.30362701   0.24034138
4634.00   43.64200974   0.24092799
4636.00   44.05204010   0.24168922
4638.00   43.83049774   0.24072805
4640.00   43.16802597   0.23980460
4642.00   43.68737411   0.24040617
4644.00   42.89067841   0.23811349
4646.00   43.30549240   0.23906812
4648.00   44.01755905   0.24092771
4650.00   44.75809479   0.24259683
4652.00   44.31314850   0.24176782
4654.00   44.58598328   0.24257217
4656.00   43.94898987   0.24109039
4658.00   43.98419952   0.24138832
4660.00   44.41125870   0.24244706
4662.00   44.62151337   0.24300684
4664.00   44.57997513   0.24293655
4666.00   45.20817947   0.24439836
4668.00   45.26397324   0.24493347
4670.00   46.12154770   0.24721473
4672.00   46.32888031   0.24778721
4674.00   45.44177628   0.24503706
4676.00   45.25090790   0.24433395
4678.00   45.31810760   0.24405733
4680.00   44.51671219   0.24166156
4682.00   44.64810562   0.24182436
4684.00   44.38875580   0.24113017
4686.00   44.00494003   0.24010582
4688.00   43.70714569   0.23911268
4690.00   43.30910110   0.23799114
4692.00   43.09911346   0.23742060
4694.00   42.46998215   0.23572759
4696.00   42.11763000   0.23489529
4698.00   41.07014847   0.23179133
4700.00   40.39432526   0.22989261
4702.00   40.16911697   0.22933447
4704.00   39.71687317   0.22842760
4706.00   39.13713837   0.22668931
4708.00   38.16414642   0.22440392
4710.00   37.81810379   0.22400373
4712.00   37.90907669   0.22391468
4714.00   38.28530502   0.22449203
4716.00   37.92919159   0.22330523
4718.00   37.62521744   0.22273543
4720.00   37.95236969   0.22346945
4722.00   38.20992661   0.22422040
4724.00   37.87302399   0.22388953
4726.00   36.93988037   0.22434579
4728.00   35.20289993   0.21755384
4730.00   34.12995148   0.21489464
4732.00   34.54113007   0.21583889
4734.00   34.68059921   0.21684399
4736.00   35.04549408   0.21816397
4738.00   35.59894180   0.22041062
4740.00   35.81992722   0.22095834
4742.00   34.73143005   0.21944670
4744.00   34.22354126   0.21738990
4746.00   34.59944916   0.21675260
4748.00   34.60843658   0.21491355
4750.00   34.30794144   0.21373914
4752.00   34.30968094   0.21387625
4754.00   33.94344330   0.21278471
4756.00   33.82638168   0.21147849
4758.00   34.00177002   0.21147498
4760.00   33.44867325   0.20953128
4762.00   32.89238739   0.20784542
4764.00   32.39086914   0.20610949
4766.00   31.86732292   0.20445718
4768.00   32.10478973   0.20501791
