# File created by shivutils (I.Shivvers)
# Blotched regions marked with a #.
# wl(A)   flm    er(optional)
3460.00   0.16627729
3462.00   0.12239566
3464.00   0.24454588
3466.00   0.11570240
3468.00   0.18759950
3470.00   0.15543148
3472.00   0.22071804
3474.00   0.19312327
3476.00   0.21265212
3478.00   0.08703984
3480.00   0.19917625
3482.00   0.26345342
3484.00   0.31142855
3486.00   0.28081283
3488.00   0.27184802
3490.00   0.21749674
3492.00   0.25304693
3494.00   0.26974612
3496.00   0.21910350
3498.00   0.26689008
3500.00   0.20708127
3502.00   0.30661994
3504.00   0.12833154
3506.00   0.25050956
3508.00   0.20898066
3510.00   0.27596986
3512.00   0.23918204
3514.00   0.15985744
3516.00   0.31255403
3518.00   0.13727853
3520.00   0.22162966
3522.00   0.31533465
3524.00   0.20629278
3526.00   0.22654803
3528.00   0.18783027
3530.00   0.25018409
3532.00   0.19146277
3534.00   0.23585442
3536.00   0.24877557
3538.00   0.21764846
3540.00   0.26240262
3542.00   0.24852091
3544.00   0.27472168
3546.00   0.25212008
3548.00   0.14852768
3550.00   0.33413181
3552.00   0.27772087
3554.00   0.31685236
3556.00   0.20729707
3558.00   0.26392746
3560.00   0.24257505
3562.00   0.28086469
3564.00   0.21375225
3566.00   0.24789144
3568.00   0.24393800
3570.00   0.20498723
3572.00   0.21633354
3574.00   0.24714631
3576.00   0.35348624
3578.00   0.25642666
3580.00   0.23640229
3582.00   0.26085120
3584.00   0.25461009
3586.00   0.25924540
3588.00   0.22190368
3590.00   0.29825860
3592.00   0.30142546
3594.00   0.27751967
3596.00   0.28778389
3598.00   0.23121756
3600.00   0.22308871
3602.00   0.20978108
3604.00   0.24226075
3606.00   0.24489680
3608.00   0.27820435
3610.00   0.23768774
3612.00   0.20238365
3614.00   0.19269238
3616.00   0.35462642
3618.00   0.25844491
3620.00   0.25330573
3622.00   0.27992716
3624.00   0.23057243
3626.00   0.22744071
3628.00   0.24684589
3630.00   0.22947875
3632.00   0.25353035
3634.00   0.22748400
3636.00   0.23915438
3638.00   0.22800836
3640.00   0.25305730
3642.00   0.23147690
3644.00   0.20037061
3646.00   0.34109852
3648.00   0.32463098
3650.00   0.24910419
3652.00   0.17064893
3654.00   0.21606016
3656.00   0.31810725
3658.00   0.25413087
3660.00   0.37115574
3662.00   0.28422096
3664.00   0.33487016
3666.00   0.29162252
3668.00   0.40812171
3670.00   0.24469922
3672.00   0.39926627
3674.00   0.27519509
3676.00   0.31542623
3678.00   0.40336153
3680.00   0.36726832
3682.00   0.36723760
3684.00   0.36999702
3686.00   0.37485299
3688.00   0.37805346
3690.00   0.36913314
3692.00   0.43052456
3694.00   0.40340251
3696.00   0.39117321
3698.00   0.46180442
3700.00   0.39186144
3702.00   0.44473249
3704.00   0.36232409
3706.00   0.38009799
3708.00   0.45155042
3710.00   0.42846596
3712.00   0.43508828
3714.00   0.39766899
3716.00   0.32541788
3718.00   0.30782399
3720.00   0.35161629
3722.00   0.35858843
3724.00   0.28140217
3726.00   0.37586418
3728.00   0.29509497
3730.00   0.26381478
3732.00   0.31538090
3734.00   0.35964388
3736.00   0.27665061
3738.00   0.32116422
3740.00   0.32113931
3742.00   0.27526966
3744.00   0.27383643
3746.00   0.31390661
3748.00   0.26912516
3750.00   0.27317366
3752.00   0.30122483
3754.00   0.28874949
3756.00   0.29627365
3758.00   0.27108324
3760.00   0.31615189
3762.00   0.34667572
3764.00   0.29104802
3766.00   0.24106644
3768.00   0.24142446
3770.00   0.32696268
3772.00   0.23972090
3774.00   0.19271785
3776.00   0.28819138
3778.00   0.22795285
3780.00   0.24706183
3782.00   0.22541371
3784.00   0.23966788
3786.00   0.22102576
3788.00   0.20263761
3790.00   0.20137167
3792.00   0.22783855
3794.00   0.20757775
3796.00   0.16274919
3798.00   0.16335906
3800.00   0.14865233
3802.00   0.19521961
3804.00   0.21308894
3806.00   0.19301824
3808.00   0.17120907
3810.00   0.15989265
3812.00   0.18981937
3814.00   0.19572517
3816.00   0.14480180
3818.00   0.18831143
3820.00   0.13203561
3822.00   0.19301254
3824.00   0.17277825
3826.00   0.15426266
3828.00   0.18167983
3830.00   0.23554912
3832.00   0.16320515
3834.00   0.19104807
3836.00   0.15832727
3838.00   0.20055465
3840.00   0.19622143
3842.00   0.23073532
3844.00   0.22737524
3846.00   0.18993326
3848.00   0.19582704
3850.00   0.27761024
3852.00   0.27180696
3854.00   0.26369897
3856.00   0.28155828
3858.00   0.28481957
3860.00   0.31453893
3862.00   0.31438380
3864.00   0.31399366
3866.00   0.25207067
3868.00   0.29459897
3870.00   0.36057368
3872.00   0.33966041
3874.00   0.32459247
3876.00   0.32299876
3878.00   0.33808106
3880.00   0.35444787
3882.00   0.35402894
3884.00   0.35994029
3886.00   0.39002019
3888.00   0.37509790
3890.00   0.40227264
3892.00   0.36296338
3894.00   0.41574478
3896.00   0.39576802
3898.00   0.43177640
3900.00   0.43714958
3902.00   0.42555389
3904.00   0.47203448
3906.00   0.43683109
3908.00   0.45829779
3910.00   0.46442738
3912.00   0.48049945
3914.00   0.44322643
3916.00   0.44588125
3918.00   0.44671479
3920.00   0.47871098
3922.00   0.45796701
3924.00   0.48191139
3926.00   0.54451370
3928.00   0.46536070
3930.00   0.47347710
3932.00   0.46189854
3934.00   0.49814132
3936.00   0.46482676
3938.00   0.49120715
3940.00   0.55528116
3942.00   0.56852084
3944.00   0.54246080
3946.00   0.55395198
3948.00   0.49850383
3950.00   0.60997862
3952.00   0.54703796
3954.00   0.53747541
3956.00   0.58281350
3958.00   0.55214328
3960.00   0.58018309
3962.00   0.61345756
3964.00   0.63261187
3966.00   0.61768377
3968.00   0.61403823
3970.00   0.62388635
3972.00   0.69635326
3974.00   0.68967372
3976.00   0.69494617
3978.00   0.62786192
3980.00   0.66042262
3982.00   0.63876337
3984.00   0.66341186
3986.00   0.65301311
3988.00   0.63412315
3990.00   0.60329688
3992.00   0.64556593
3994.00   0.66267014
3996.00   0.64201945
3998.00   0.58784717
4000.00   0.58467561
4002.00   0.57826972
4004.00   0.64827591
4006.00   0.59069234
4008.00   0.57159352
4010.00   0.54774719
4012.00   0.56628221
4014.00   0.59044617
4016.00   0.56722695
4018.00   0.57671398
4020.00   0.52478647
4022.00   0.57125413
4024.00   0.54967320
4026.00   0.53420460
4028.00   0.55117911
4030.00   0.55042481
4032.00   0.52860588
4034.00   0.49463683
4036.00   0.49515578
4038.00   0.48935512
4040.00   0.47108561
4042.00   0.48289034
4044.00   0.50285763
4046.00   0.51690716
4048.00   0.43564403
4050.00   0.42154646
4052.00   0.46470129
4054.00   0.47936842
4056.00   0.42880112
4058.00   0.48744398
4060.00   0.48753881
4062.00   0.49159279
4064.00   0.46740657
4066.00   0.47865242
4068.00   0.47402969
4070.00   0.45926431
4072.00   0.48231491
4074.00   0.52293110
4076.00   0.46928686
4078.00   0.52204496
4080.00   0.50680226
4082.00   0.49938601
4084.00   0.48723844
4086.00   0.49302816
4088.00   0.49900189
4090.00   0.47261798
4092.00   0.45180851
4094.00   0.46890265
4096.00   0.50735539
4098.00   0.48793617
4100.00   0.45579347
4102.00   0.45208234
4104.00   0.42932364
4106.00   0.45284462
4108.00   0.43062246
4110.00   0.46231982
4112.00   0.41597643
4114.00   0.45761797
4116.00   0.39621186
4118.00   0.41953838
4120.00   0.40409461
4122.00   0.41039366
4124.00   0.42133111
4126.00   0.40125626
4128.00   0.37236583
4130.00   0.44623870
4132.00   0.42762032
4134.00   0.41388381
4136.00   0.43091160
4138.00   0.43359753
4140.00   0.44384965
4142.00   0.43309006
4144.00   0.41314232
4146.00   0.41500166
4148.00   0.41482839
4150.00   0.40116835
4152.00   0.35421583
4154.00   0.38757163
4156.00   0.37200400
4158.00   0.40255007
4160.00   0.35800272
4162.00   0.38221377
4164.00   0.38299701
4166.00   0.35911608
4168.00   0.40577784
4170.00   0.38557342
4172.00   0.36609048
4174.00   0.35218892
4176.00   0.37772244
4178.00   0.38239318
4180.00   0.36955729
4182.00   0.37460950
4184.00   0.37076786
4186.00   0.39403367
4188.00   0.41416219
4190.00   0.35616103
4192.00   0.38628662
4194.00   0.43184868
4196.00   0.39287797
4198.00   0.39090642
4200.00   0.41192248
4202.00   0.40627584
4204.00   0.41443402
4206.00   0.39369133
4208.00   0.38568199
4210.00   0.40860188
4212.00   0.43758816
4214.00   0.39247879
4216.00   0.42889285
4218.00   0.45235246
4220.00   0.38322043
4222.00   0.40551221
4224.00   0.35019946
4226.00   0.38579544
4228.00   0.43362406
4230.00   0.42670634
4232.00   0.42512456
4234.00   0.41806182
4236.00   0.42800823
4238.00   0.40737748
4240.00   0.40672758
4242.00   0.43346533
4244.00   0.41972911
4246.00   0.42562839
4248.00   0.44704458
4250.00   0.38315082
4252.00   0.41553089
4254.00   0.43940026
4256.00   0.38020879
4258.00   0.40981635
4260.00   0.39200035
4262.00   0.37768763
4264.00   0.39185312
4266.00   0.40139329
4268.00   0.40452626
4270.00   0.42090541
4272.00   0.41252142
4274.00   0.42431569
4276.00   0.42603186
4278.00   0.40025458
4280.00   0.41460705
4282.00   0.43789509
4284.00   0.37369466
4286.00   0.44990090
4288.00   0.42305556
4290.00   0.41876543
4292.00   0.43878877
4294.00   0.42446843
4296.00   0.42184871
4298.00   0.41344810
4300.00   0.46676600
4302.00   0.45715410
4304.00   0.45637578
4306.00   0.45271969
4308.00   0.45565522
4310.00   0.43263742
4312.00   0.48539981
4314.00   0.46176150
4316.00   0.45565706
4318.00   0.44694859
4320.00   0.44205791
4322.00   0.47809374
4324.00   0.42875388
4326.00   0.42189139
4328.00   0.46429902
4330.00   0.46016976
4332.00   0.44828936
4334.00   0.45171264
4336.00   0.44432521
4338.00   0.45414707
4340.00   0.46768653
4342.00   0.43490911
4344.00   0.48763198
4346.00   0.44448924
4348.00   0.43051469
4350.00   0.42714155
4352.00   0.44141468
4354.00   0.43476483
4356.00   0.43937674
4358.00   0.43399310
4360.00   0.37344283
4362.00   0.39273265
4364.00   0.42502648
4366.00   0.38960782
4368.00   0.43580735
4370.00   0.39459199
4372.00   0.40049043
4374.00   0.39182392
4376.00   0.38873348
4378.00   0.37137330
4380.00   0.39381111
4382.00   0.40108237
4384.00   0.37091181
4386.00   0.34109879
4388.00   0.37118697
4390.00   0.33664867
4392.00   0.37217015
4394.00   0.35266396
4396.00   0.34158617
4398.00   0.37339693
4400.00   0.34256634
4402.00   0.34796521
4404.00   0.35143760
4406.00   0.32843456
4408.00   0.35785031
4410.00   0.32536703
4412.00   0.32972613
4414.00   0.30897593
4416.00   0.33637789
4418.00   0.29555616
4420.00   0.32913399
4422.00   0.32621196
4424.00   0.30484390
4426.00   0.31063575
4428.00   0.29987764
4430.00   0.33044630
4432.00   0.32601741
4434.00   0.27860227
4436.00   0.28655818
4438.00   0.31260684
4440.00   0.29112262
4442.00   0.31746346
4444.00   0.31902605
4446.00   0.28212535
4448.00   0.32359061
4450.00   0.35511434
4452.00   0.31652257
4454.00   0.33786491
4456.00   0.31702489
4458.00   0.33692962
4460.00   0.30869800
4462.00   0.37038898
4464.00   0.31450325
4466.00   0.35866371
4468.00   0.32193291
4470.00   0.29312193
4472.00   0.29568666
4474.00   0.30605698
4476.00   0.31652468
4478.00   0.30991998
4480.00   0.36045402
4482.00   0.33353701
4484.00   0.33000088
4486.00   0.33507854
4488.00   0.34114972
4490.00   0.32275906
4492.00   0.36175495
4494.00   0.35677496
4496.00   0.38237581
4498.00   0.37106994
4500.00   0.36513075
4502.00   0.38569567
4504.00   0.40158078
4506.00   0.39352375
4508.00   0.38399258
4510.00   0.36194867
4512.00   0.40642223
4514.00   0.39080513
4516.00   0.39117548
4518.00   0.40500402
4520.00   0.41604540
4522.00   0.43329117
4524.00   0.44980717
4526.00   0.42865083
4528.00   0.45427960
4530.00   0.45991984
4532.00   0.44559750
4534.00   0.46704754
4536.00   0.46989077
4538.00   0.48794284
4540.00   0.47946531
4542.00   0.54247719
4544.00   0.50614196
4546.00   0.48972675
4548.00   0.51802886
4550.00   0.51255256
4552.00   0.57850313
4554.00   0.62605011
4556.00   0.62340707
4558.00   0.61099893
4560.00   0.63144994
4562.00   0.64532030
4564.00   0.62965077
4566.00   0.73565620
4568.00   0.67077029
4570.00   0.71006793
4572.00   0.68133920
4574.00   0.69914025
4576.00   0.72359234
4578.00   0.74181128
4580.00   0.75834191
4582.00   0.77385265
4584.00   0.81673253
4586.00   0.78437579
4588.00   0.79834461
4590.00   0.81918639
4592.00   0.84759396
4594.00   0.79738301
4596.00   0.76598120
4598.00   0.81536233
4600.00   0.83763987
4602.00   0.82786572
4604.00   0.77758050
4606.00   0.79495776
4608.00   0.82972437
4610.00   0.81326836
4612.00   0.78916758
4614.00   0.84635824
4616.00   0.84883511
4618.00   0.81554681
4620.00   0.84731174
4622.00   0.83140087
4624.00   0.81829751
4626.00   0.81238008
4628.00   0.80914760
4630.00   0.83980453
4632.00   0.86399138
4634.00   0.85018247
4636.00   0.86111557
4638.00   0.86494744
4640.00   0.87405843
4642.00   0.88052648
4644.00   0.87030941
4646.00   0.89514500
4648.00   0.86749297
4650.00   0.88666648
4652.00   0.87406236
4654.00   0.89323783
4656.00   0.86465740
4658.00   0.84573311
4660.00   0.87120283
4662.00   0.82159007
4664.00   0.84222931
4666.00   0.82331830
4668.00   0.82273418
4670.00   0.78163266
4672.00   0.75444996
4674.00   0.75460899
4676.00   0.74788076
4678.00   0.71159071
4680.00   0.69870931
4682.00   0.67697150
4684.00   0.68666106
4686.00   0.64883631
4688.00   0.66300565
4690.00   0.60324228
4692.00   0.61980230
4694.00   0.61750346
4696.00   0.60221821
4698.00   0.57020789
4700.00   0.53065455
4702.00   0.53429258
4704.00   0.53436530
4706.00   0.51009715
4708.00   0.51136845
4710.00   0.47451425
4712.00   0.48857400
4714.00   0.47946861
4716.00   0.45930088
4718.00   0.45561001
4720.00   0.44739521
4722.00   0.42392328
4724.00   0.44519159
4726.00   0.44181973
4728.00   0.44387203
4730.00   0.42395937
4732.00   0.43366873
4734.00   0.43790716
4736.00   0.42552230
4738.00   0.40818271
4740.00   0.42904162
4742.00   0.42360789
4744.00   0.42390692
4746.00   0.41741440
4748.00   0.42828295
4750.00   0.46398023
4752.00   0.42452672
4754.00   0.43245605
4756.00   0.45815548
4758.00   0.39898810
4760.00   0.46304932
4762.00   0.43566748
4764.00   0.41194245
4766.00   0.41094217
4768.00   0.42896673
4770.00   0.42391336
4772.00   0.42400175
4774.00   0.41939571
4776.00   0.42088559
4778.00   0.40227360
4780.00   0.41343260
4782.00   0.40234330
4784.00   0.40501863
4786.00   0.41511619
4788.00   0.44457105
4790.00   0.43872106
4792.00   0.43966541
4794.00   0.44087887
4796.00   0.45636284
4798.00   0.40815228
4800.00   0.43528539
4802.00   0.46289763
4804.00   0.44484228
4806.00   0.49324024
4808.00   0.47507569
4810.00   0.49171549
4812.00   0.50121605
4814.00   0.51524502
4816.00   0.53773063
4818.00   0.53860533
4820.00   0.55607450
4822.00   0.54274672
4824.00   0.60348600
4826.00   0.58218265
4828.00   0.60874820
4830.00   0.58821774
4832.00   0.64025128
4834.00   0.64935964
4836.00   0.62575066
4838.00   0.66964978
4840.00   0.64274406
4842.00   0.65131861
4844.00   0.67020440
4846.00   0.66271293
4848.00   0.64706802
4850.00   0.65385115
4852.00   0.62400514
4854.00   0.63223988
4856.00   0.59262365
4858.00   0.57999885
4860.00   0.58921617
4862.00   0.58558643
4864.00   0.57024974
4866.00   0.55368966
4868.00   0.55536592
4870.00   0.57194233
4872.00   0.53521001
4874.00   0.53037572
4876.00   0.54576665
4878.00   0.55481333
4880.00   0.51698512
4882.00   0.59744817
4884.00   0.55089390
4886.00   0.54955512
4888.00   0.55368328
4890.00   0.56642830
4892.00   0.55853736
4894.00   0.55568761
4896.00   0.60853899
4898.00   0.56716853
4900.00   0.55763400
4902.00   0.56965643
4904.00   0.60744196
4906.00   0.62488830
4908.00   0.58725351
4910.00   0.61720663
4912.00   0.66343611
4914.00   0.65856862
4916.00   0.68668139
4918.00   0.72498071
4920.00   0.71249390
4922.00   0.71030790
4924.00   0.73069161
4926.00   0.73912394
4928.00   0.73928678
4930.00   0.74719596
4932.00   0.78462243
4934.00   0.77656567
4936.00   0.79070956
4938.00   0.80326986
4940.00   0.79581892
4942.00   0.83380657
4944.00   0.85861009
4946.00   0.85255694
4948.00   0.83435625
4950.00   0.87165076
4952.00   0.84983855
4954.00   0.86811155
4956.00   0.89252901
4958.00   0.88042736
4960.00   0.88574547
4962.00   0.86423630
4964.00   0.84900737
4966.00   0.86205417
4968.00   0.89972514
4970.00   0.88203937
4972.00   0.87044209
4974.00   0.85001141
4976.00   0.84226060
4978.00   0.85830051
4980.00   0.83701855
4982.00   0.87352866
4984.00   0.85617119
4986.00   0.88006240
4988.00   0.81530929
4990.00   0.81788939
4992.00   0.78820097
4994.00   0.75964862
4996.00   0.76059455
4998.00   0.71088094
5000.00   0.71802956
5002.00   0.68200868
5004.00   0.64538991
5006.00   0.64761746
5008.00   0.66081238
5010.00   0.63929659
5012.00   0.65722603
5014.00   0.62369555
5016.00   0.60044217
5018.00   0.58555746
5020.00   0.59592110
5022.00   0.57932669
5024.00   0.55557466
5026.00   0.56659400
5028.00   0.55202121
5030.00   0.54357803
5032.00   0.51403803
5034.00   0.54591316
5036.00   0.50721842
5038.00   0.49757129
5040.00   0.48798388
5042.00   0.52065927
5044.00   0.48560175
5046.00   0.50208175
5048.00   0.46843705
5050.00   0.46781716
5052.00   0.46799481
5054.00   0.49365786
5056.00   0.46149296
5058.00   0.47473821
5060.00   0.45707673
5062.00   0.46616846
5064.00   0.45455498
5066.00   0.46053821
5068.00   0.43522665
5070.00   0.45548707
5072.00   0.46175817
5074.00   0.45802894
5076.00   0.44670701
5078.00   0.46806121
5080.00   0.43926400
5082.00   0.44709691
5084.00   0.46666375
5086.00   0.41467550
5088.00   0.41671672
5090.00   0.44126412
5092.00   0.45080560
5094.00   0.43026450
5096.00   0.40578067
5098.00   0.43749115
5100.00   0.44721299
5102.00   0.39515111
5104.00   0.42155969
5106.00   0.42566267
5108.00   0.39391780
5110.00   0.41910234
5112.00   0.39500380
5114.00   0.39367625
5116.00   0.40433317
5118.00   0.38547584
5120.00   0.39734170
5122.00   0.39785248
5124.00   0.39468479
5126.00   0.41352442
5128.00   0.41187999
5130.00   0.40169182
5132.00   0.36744758
5134.00   0.42038500
5136.00   0.38296106
5138.00   0.42891210
5140.00   0.42620140
5142.00   0.41732180
5144.00   0.40530425
5146.00   0.38366285
5148.00   0.38350865
5150.00   0.41805378
5152.00   0.39157805
5154.00   0.39129546
5156.00   0.39986917
5158.00   0.39227784
5160.00   0.37835309
5162.00   0.38778815
5164.00   0.36394635
5166.00   0.37415639
5168.00   0.39533457
5170.00   0.40858212
5172.00   0.41291815
5174.00   0.40738186
5176.00   0.39729616
5178.00   0.38922596
5180.00   0.41915464
5182.00   0.40715259
5184.00   0.41749400
5186.00   0.40794474
5188.00   0.43498370
5190.00   0.42753980
5192.00   0.40575898
5194.00   0.45261014
5196.00   0.42769450
5198.00   0.45087883
5200.00   0.44293895
5202.00   0.44657847
5204.00   0.46461704
5206.00   0.47665560
5208.00   0.46795636
5210.00   0.45847669
5212.00   0.48434407
5214.00   0.49793553
5216.00   0.49077699
5218.00   0.50001067
5220.00   0.48282817
5222.00   0.49970853
5224.00   0.48319647
5226.00   0.49160010
5228.00   0.53935081
5230.00   0.53956556
5232.00   0.57022530
5234.00   0.53757298
5236.00   0.55722904
5238.00   0.55057508
5240.00   0.56171918
5242.00   0.57989550
5244.00   0.58238262
5246.00   0.55755222
5248.00   0.58193690
5250.00   0.57670254
5252.00   0.60932070
5254.00   0.58118612
5256.00   0.59960771
5258.00   0.61061889
5260.00   0.61682981
5262.00   0.64078844
5264.00   0.58646315
5266.00   0.61833280
5268.00   0.66399294
5270.00   0.61584616
5272.00   0.61934739
5274.00   0.59087217
5276.00   0.63076657
5278.00   0.61799765
5280.00   0.64818430
5282.00   0.62191713
5284.00   0.65282911
5286.00   0.67579001
5288.00   0.66349429
5290.00   0.67149687
5292.00   0.69641280
5294.00   0.68190360
5296.00   0.70662367
5298.00   0.69089568
5300.00   0.71034813
5302.00   0.73127449
5304.00   0.69787455
5306.00   0.70644104
5308.00   0.70419085
5310.00   0.72341514
5312.00   0.73924273
5314.00   0.75021780
5316.00   0.74694777
5318.00   0.76171333
5320.00   0.73418772
5322.00   0.74636614
5324.00   0.75876766
5326.00   0.77334905
5328.00   0.73042887
5330.00   0.73503238
5332.00   0.70867503
5334.00   0.72667915
5336.00   0.73157072
5338.00   0.73905849
5340.00   0.70418167
5342.00   0.68555182
5344.00   0.73606288
5346.00   0.69771206
5348.00   0.69403362
5350.00   0.68490851
5352.00   0.72001159
